data_type,timestamp,EEG1,EEG2,EEG3,EEG4,quality
eeg_raw,1580074115655777,1253.919413919414,132.56410256410257,771.6117216117216,813.5164835164835
eeg_raw,1580074115661693,939.6336996336996,186.55677655677655,844.5421245421246,842.1245421245421
eeg_raw,1580074115664509,38.681318681318686,730.1098901098901,914.2490842490843,885.6410256410256
eeg_raw,1580074115668946,1274.4688644688645,1052.051282051282,905.7875457875458,878.7912087912089
eeg_raw,1580074115675586,143.44322344322345,686.996336996337,807.0695970695971,815.5311355311355
eeg_raw,1580074115683485,824.7985347985348,824.7985347985348,825.2014652014652,824.7985347985348
eeg_raw,1580074115690483,823.992673992674,824.7985347985348,819.5604395604396,822.3809523809524
eeg_raw,1580074115691729,832.0512820512821,827.6190476190476,846.5567765567765,853.0036630036631
eeg_raw,1580074115692322,818.7545787545788,819.5604395604396,806.2637362637363,774.4322344322345
eeg_raw,1580074115692852,850.1831501831502,850.989010989011,875.1648351648352,1064.945054945055
eeg_raw,1580074115693358,1062.1245421245421,898.1318681318681,1410.6593406593406,20.54945054945055
eeg_raw,1580074115693880,1083.076923076923,858.6446886446887,102.34432234432235,1508.9743589743591
eeg_raw,1580074115735592,751.8681318681319,787.7289377289378,1167.6923076923076,523.8095238095239
eeg_raw,1580074115736337,527.8388278388279,756.3003663003664,99.92673992673993,0.0
eeg_raw,1580074115736972,700.2930402930403,798.2051282051282,292.9304029304029,789.3406593406594
eeg_raw,1580074115737410,1044.3956043956043,843.7362637362637,1361.5018315018315,5.641025641025641
eeg_raw,1580074115737830,1100.4029304029305,805.8608058608058,106.37362637362638,1550.8791208791208
eeg_raw,1580074115738284,796.1904761904763,746.2271062271062,1096.3736263736264,638.2417582417582
eeg_raw,1580074115738690,535.0915750915751,732.9304029304029,93.07692307692308,0.0
eeg_raw,1580074115739045,670.4761904761905,771.6117216117216,150.2930402930403,644.6886446886447
eeg_raw,1580074115739505,1022.2344322344322,836.4835164835165,1141.904761904762,1570.6227106227107
eeg_raw,1580074115740042,1117.3260073260074,832.0512820512821,115.23809523809524,1624.2124542124543
eeg_raw,1580074115740473,838.901098901099,774.8351648351648,1281.7216117216117,778.8644688644689
eeg_raw,1580074115740895,552.8205128205128,733.3333333333334,239.34065934065936,0.0
eeg_raw,1580074115763245,630.989010989011,767.5824175824176,131.75824175824175,498.42490842490844
eeg_raw,1580074115763722,973.4798534798535,815.1282051282052,1110.4761904761906,1486.0073260073261
eeg_raw,1580074115764158,1120.952380952381,804.2490842490843,99.12087912087912,23.369963369963372
eeg_raw,1580074115764586,882.8205128205128,752.2710622710623,1350.6227106227107,901.7582417582418
eeg_raw,1580074115765023,570.952380952381,711.1721611721612,340.8791208791209,0.0
eeg_raw,1580074115765405,591.5018315018315,745.4212454212454,0.0,359.8168498168498
eeg_raw,1580074115765783,931.978021978022,829.6336996336996,885.2380952380953,1360.2930402930403
eeg_raw,1580074115766174,1127.8021978021977,847.7655677655678,87.43589743589745,60.84249084249085
eeg_raw,1580074115766542,919.0842490842491,787.7289377289378,1427.1794871794873,1020.2197802197802
eeg_raw,1580074115766932,589.8901098901099,742.1978021978023,432.7472527472528,51.97802197802198
eeg_raw,1580074115767297,567.7289377289377,767.985347985348,0.0,246.5934065934066
eeg_raw,1580074115767672,888.8644688644689,823.992673992674,761.5384615384615,1241.025641025641
eeg_raw,1580074115832088,1114.5054945054944,842.9304029304029,55.604395604395606,89.85347985347985
eeg_raw,1580074115834875,948.0952380952381,794.5787545787546,1460.6227106227107,1102.014652014652
eeg_raw,1580074115836171,621.7216117216118,760.3296703296703,460.95238095238096,105.56776556776558
eeg_raw,1580074115837393,548.3882783882784,820.3663003663004,0.0,159.15750915750917
eeg_raw,1580074115839689,840.9157509157509,881.6117216117217,580.2197802197802,1123.772893772894
eeg_raw,1580074115841495,1111.2820512820513,886.8498168498169,1591.1721611721612,99.12087912087912
eeg_raw,1580074115842387,992.4175824175825,840.9157509157509,1500.5128205128206,1219.6703296703297
eeg_raw,1580074115843306,650.3296703296703,795.3846153846154,480.2930402930403,215.56776556776558
eeg_raw,1580074115846811,527.032967032967,839.7069597069598,0.0,92.67399267399267
eeg_raw,1580074115848041,798.2051282051282,898.1318681318681,581.025641025641,1019.8168498168499
eeg_raw,1580074115848929,1101.6117216117216,894.1025641025641,1578.2783882783883,95.4945054945055
eeg_raw,1580074115849858,1031.904761904762,833.2600732600733,1591.5750915750916,1330.0732600732601
eeg_raw,1580074115880777,694.2490842490843,773.6263736263736,683.7728937728938,324.35897435897436
eeg_raw,1580074115881530,531.4652014652015,774.4322344322345,0.0,21.355311355311358
eeg_raw,1580074115882037,767.1794871794872,830.4395604395604,410.1831501831502,889.2673992673992
eeg_raw,1580074115882692,1091.5384615384617,870.7326007326008,1439.2673992673992,67.28937728937728
eeg_raw,1580074115883187,1062.930402930403,840.9157509157509,9.267399267399268,1415.4945054945056
eeg_raw,1580074115883624,727.6923076923077,788.1318681318681,783.6996336996338,423.4798534798535
eeg_raw,1580074115884090,527.032967032967,789.7435897435897,0.0,0.0
eeg_raw,1580074115884518,716.8131868131868,860.6593406593407,282.05128205128204,766.7765567765568
eeg_raw,1580074115885008,1058.095238095238,919.0842490842491,1312.7472527472528,9.267399267399268
eeg_raw,1580074115885478,1096.7765567765568,875.9706959706959,1635.4945054945056,1498.4981684981685
eeg_raw,1580074115885911,782.0879120879121,831.2454212454213,762.7472527472528,535.0915750915751
eeg_raw,1580074115886336,530.6593406593407,857.4358974358975,0.0,0.0
eeg_raw,1580074115915185,674.5054945054945,907.3992673992674,215.16483516483518,634.6153846153846
eeg_raw,1580074115915873,1025.0549450549452,942.4542124542124,1163.6630036630038,1579.0842490842492
eeg_raw,1580074115916434,1110.4761904761906,918.2783882783883,110.8058608058608,1567.3992673992675
eeg_raw,1580074115916938,829.6336996336996,868.3150183150184,1123.772893772894,653.956043956044
eeg_raw,1580074115917385,555.2380952380953,827.2161172161173,122.4908424908425,0.0
eeg_raw,1580074115917835,641.4652014652015,849.7802197802198,58.02197802197802,488.35164835164835
eeg_raw,1580074115918330,985.970695970696,891.2820512820513,970.6593406593407,1473.919413919414
eeg_raw,1580074115918879,1125.3846153846155,870.7326007326008,100.73260073260073,1620.5860805860807
eeg_raw,1580074115919367,872.7472527472528,818.7545787545788,1174.5421245421246,759.1208791208792
eeg_raw,1580074115919879,564.9084249084249,790.1465201465202,168.82783882783883,0.0
eeg_raw,1580074115920330,609.6336996336996,815.1282051282052,43.91941391941392,364.24908424908426
eeg_raw,1580074115920803,955.7509157509157,847.7655677655678,861.0622710622711,1361.0989010989013
eeg_raw,1580074115947954,1124.1758241758241,850.5860805860806,31.831501831501832,29.816849816849818
eeg_raw,1580074115948763,901.7582417582418,794.1758241758242,1357.8754578754579,895.3113553113553
eeg_raw,1580074115949386,582.6373626373627,735.3479853479854,342.0879120879121,3.6263736263736264
eeg_raw,1580074115950371,578.2051282051282,760.3296703296703,0.0,258.27838827838826
eeg_raw,1580074115950979,914.6520146520147,818.3516483516484,701.9047619047619,1251.904761904762
eeg_raw,1580074115951523,1131.4285714285716,838.901098901099,1646.7765567765568,58.42490842490842
eeg_raw,1580074115952003,944.8717948717949,796.996336996337,1448.937728937729,998.8644688644689
eeg_raw,1580074115952527,611.2454212454213,752.2710622710623,440.80586080586085,64.87179487179488
eeg_raw,1580074115953009,552.014652014652,764.7619047619048,0.0,176.4835164835165
eeg_raw,1580074115953546,857.032967032967,808.2783882783883,534.6886446886447,1146.739926739927
eeg_raw,1580074115954093,1123.772893772894,824.7985347985348,1516.2271062271063,97.10622710622711
eeg_raw,1580074115954619,1001.2820512820513,779.2673992673992,1464.6520146520147,1159.6336996336997
eeg_raw,1580074116000391,659.5970695970697,733.7362637362637,492.7838827838828,172.05128205128204
eeg_raw,1580074116001305,555.2380952380953,728.0952380952381,0.0,96.7032967032967
eeg_raw,1580074116002170,831.6483516483516,765.5677655677656,389.6336996336996,1018.2051282051283
eeg_raw,1580074116003081,1119.3406593406594,795.3846153846154,1445.3113553113553,93.07692307692308
eeg_raw,1580074116003821,1030.6959706959708,743.0036630036631,1624.6153846153848,1295.4212454212454
eeg_raw,1580074116004534,695.4578754578755,678.5347985347986,645.0915750915751,295.34798534798534
eeg_raw,1580074116005226,543.5531135531136,668.4615384615385,0.0,33.84615384615385
eeg_raw,1580074116006003,780.0732600732601,727.2893772893773,325.5677655677656,889.2673992673992
eeg_raw,1580074116006715,1095.970695970696,787.3260073260074,1339.7435897435898,64.46886446886447
eeg_raw,1580074116009097,1066.1538461538462,757.5091575091575,53.99267399267399,1383.6630036630038
eeg_raw,1580074116010023,734.5421245421246,705.1282051282052,826.4102564102565,383.992673992674
eeg_raw,1580074116010715,534.2857142857143,699.4871794871796,0.0,0.0
eeg_raw,1580074116090426,738.5714285714286,758.7179487179487,301.3919413919414,779.2673992673992
eeg_raw,1580074116091503,1065.7509157509157,799.8168498168499,1299.4505494505495,14.908424908424909
eeg_raw,1580074116092906,1085.897435897436,785.3113553113553,96.3003663003663,1477.5457875457876
eeg_raw,1580074116093875,782.4908424908425,749.4505494505495,942.0512820512821,505.6776556776557
eeg_raw,1580074116096929,542.3443223443223,726.0805860805862,0.0,0.0
eeg_raw,1580074116099472,694.2490842490843,790.5494505494506,180.91575091575092,651.5384615384615
eeg_raw,1580074116102087,1042.7838827838827,858.2417582417582,1144.7252747252749,1593.1868131868132
eeg_raw,1580074116103674,1110.8791208791208,836.0805860805862,118.46153846153847,1550.8791208791208
eeg_raw,1580074116105532,815.934065934066,772.8205128205128,1060.5128205128206,618.0952380952381
eeg_raw,1580074116106393,547.985347985348,743.4065934065934,47.54578754578755,0.0
eeg_raw,1580074116108013,654.3589743589744,814.3223443223443,142.23443223443223,528.6446886446887
eeg_raw,1580074116108777,1005.3113553113553,885.6410256410256,1093.1501831501832,1502.5274725274726
eeg_raw,1580074116111437,1124.981684981685,870.3296703296703,123.69963369963371,1617.7655677655678
eeg_raw,1580074116112015,860.6593406593407,804.6520146520147,1208.7912087912089,753.0769230769231
eeg_raw,1580074116112571,564.5054945054945,761.1355311355312,159.56043956043956,0.0
eeg_raw,1580074116113095,618.4981684981685,801.4285714285714,27.802197802197803,396.0805860805861
eeg_raw,1580074116113685,961.7948717948718,856.6300366300367,916.2637362637363,1388.4981684981685
eeg_raw,1580074116114279,1128.6080586080586,857.8388278388279,110.40293040293041,21.75824175824176
eeg_raw,1580074116114828,894.5054945054945,794.981684981685,1244.6520146520147,857.4358974358975
eeg_raw,1580074116115360,569.3406593406594,757.9120879120879,182.12454212454213,0.0
eeg_raw,1580074116115874,576.5934065934066,815.1282051282052,0.0,288.09523809523813
eeg_raw,1580074116116399,911.8315018315019,871.1355311355312,835.2747252747253,1275.2747252747254
eeg_raw,1580074116116923,1123.3699633699634,863.0769230769231,86.63003663003663,63.26007326007326
eeg_raw,1580074116117471,931.1721611721612,798.2051282051282,1333.6996336996338,985.1648351648352
eeg_raw,1580074116139117,597.948717948718,757.1062271062272,309.4505494505495,41.501831501831504
eeg_raw,1580074116139816,557.6556776556777,786.1172161172161,0.0,202.67399267399267
eeg_raw,1580074116140403,877.5824175824176,838.4981684981685,709.1575091575091,1176.5567765567766
eeg_raw,1580074116140960,1124.5787545787546,853.4065934065934,38.27838827838828,86.63003663003663
eeg_raw,1580074116141490,966.2271062271062,791.3553113553114,1396.959706959707,1111.6849816849817
eeg_raw,1580074116142037,631.7948717948718,730.1098901098901,390.84249084249086,136.5934065934066
eeg_raw,1580074116142576,544.3589743589744,741.7948717948718,0.0,120.87912087912088
eeg_raw,1580074116143093,832.0512820512821,788.5347985347986,517.3626373626374,1056.886446886447
eeg_raw,1580074116143679,1108.0586080586081,811.9047619047619,1574.6520146520147,95.0915750915751
eeg_raw,1580074116144220,1003.6996336996338,746.2271062271062,1432.014652014652,1232.161172161172
eeg_raw,1580074116144766,667.6556776556777,691.8315018315019,387.21611721611725,236.52014652014654
eeg_raw,1580074116145305,533.4798534798535,729.7069597069598,0.0,56.41025641025641
eeg_raw,1580074116208115,779.6703296703297,801.025641025641,431.13553113553115,939.6336996336996
eeg_raw,1580074116208996,1089.1208791208792,832.8571428571429,1453.3699633699634,80.98901098901099
eeg_raw,1580074116210275,1041.1721611721612,792.5641025641025,1630.6593406593406,1344.981684981685
eeg_raw,1580074116211164,703.919413919414,768.7912087912088,711.1721611721612,348.13186813186815
eeg_raw,1580074116212071,522.1978021978022,777.6556776556777,0.0,0.0
eeg_raw,1580074116212826,735.7509157509157,830.4395604395604,278.82783882783883,801.8315018315019
eeg_raw,1580074116213464,1070.1831501831502,860.6593406593407,1284.945054945055,29.816849816849818
eeg_raw,1580074116214090,1066.1538461538462,832.4542124542124,22.967032967032967,1441.2820512820513
eeg_raw,1580074116214722,740.1831501831502,791.3553113553114,819.1575091575091,459.34065934065933
eeg_raw,1580074116215386,524.2124542124542,755.4945054945055,0.0,0.0
eeg_raw,1580074116216863,699.8901098901099,780.0732600732601,181.3186813186813,676.5201465201466
eeg_raw,1580074116217713,1038.7545787545787,813.1135531135532,1144.3223443223444,1616.5567765567766
eeg_raw,1580074116240721,1092.7472527472528,792.1611721611722,113.62637362637363,1526.7032967032967
eeg_raw,1580074116241269,787.3260073260074,733.3333333333334,1015.7875457875458,573.3699633699634
eeg_raw,1580074116241710,531.4652014652015,705.1282051282052,30.622710622710624,0.0
eeg_raw,1580074116242201,660.0,767.1794871794872,159.56043956043956,559.2673992673992
eeg_raw,1580074116242614,1008.5347985347986,814.3223443223443,1043.5897435897436,1534.3589743589744
eeg_raw,1580074116243058,1110.8791208791208,804.2490842490843,67.28937728937728,1599.6336996336997
eeg_raw,1580074116243480,834.0659340659341,774.0293040293041,1100.805860805861,712.7838827838829
eeg_raw,1580074116243905,554.4322344322344,760.3296703296703,106.77655677655677,0.0
eeg_raw,1580074116244323,628.5714285714286,791.7582417582418,72.93040293040293,422.6739926739927
eeg_raw,1580074116244727,974.6886446886447,814.7252747252747,810.2930402930403,1429.5970695970695
eeg_raw,1580074116245138,1124.1758241758241,826.4102564102565,1643.1501831501832,1645.970695970696
eeg_raw,1580074116245518,875.1648351648352,786.5201465201466,1286.5567765567766,803.040293040293
eeg_raw,1580074116267656,562.893772893773,744.2124542124542,253.04029304029305,0.0
eeg_raw,1580074116268092,591.9047619047619,771.2087912087912,0.0,326.7765567765568
eeg_raw,1580074116268480,937.2161172161173,838.4981684981685,717.2161172161173,1324.4322344322345
eeg_raw,1580074116268887,1124.981684981685,872.7472527472528,41.0989010989011,37.472527472527474
eeg_raw,1580074116269286,910.6227106227107,829.2307692307693,1378.4249084249084,930.7692307692308
eeg_raw,1580074116269676,588.6813186813187,793.3699633699634,361.83150183150184,28.205128205128204
eeg_raw,1580074116270201,568.1318681318681,811.5018315018315,0.0,218.3882783882784
eeg_raw,1580074116270579,888.8644688644689,880.0,565.3113553113553,1199.5238095238096
eeg_raw,1580074116270924,1121.3553113553114,916.6666666666667,1627.838827838828,76.15384615384616
eeg_raw,1580074116271263,954.5421245421246,860.6593406593407,1486.8131868131868,1050.4395604395604
eeg_raw,1580074116271573,620.1098901098901,818.3516483516484,506.8864468864469,99.12087912087912
eeg_raw,1580074116271880,551.2087912087912,829.6336996336996,0.0,136.996336996337
eeg_raw,1580074116332400,846.1538461538462,896.1172161172161,497.21611721611725,1079.047619047619
eeg_raw,1580074116334984,1110.0732600732601,930.3663003663004,1569.8168498168498,92.67399267399267
eeg_raw,1580074116335765,989.5970695970697,871.5384615384615,1549.6703296703297,1177.3626373626373
eeg_raw,1580074116336472,653.956043956044,817.948717948718,589.4871794871796,194.6153846153846
eeg_raw,1580074116337168,536.3003663003664,810.2930402930403,0.0,82.6007326007326
eeg_raw,1580074116337869,807.8754578754579,884.4322344322345,399.3040293040293,976.3003663003664
eeg_raw,1580074116338616,1108.4615384615386,946.4835164835165,1447.3260073260074,85.01831501831502
eeg_raw,1580074116339366,1025.8608058608058,908.2051282051282,35.86080586080586,1315.1648351648353
eeg_raw,1580074116340261,695.4578754578755,850.1831501831502,782.4908424908425,314.2857142857143
eeg_raw,1580074116340962,545.9706959706959,826.8131868131868,0.0,22.16117216117216
eeg_raw,1580074116341677,766.7765567765568,887.2527472527473,394.87179487179486,853.0036630036631
eeg_raw,1580074116342373,1074.6153846153848,919.8901098901099,1400.5860805860807,43.91941391941392
eeg_raw,1580074116364933,1062.1245421245421,873.956043956044,72.93040293040293,1405.4212454212454
eeg_raw,1580074116365829,754.6886446886447,821.5750915750916,929.5604395604396,417.83882783882785
eeg_raw,1580074116366601,551.6117216117216,819.96336996337,0.0,0.0
eeg_raw,1580074116368118,718.4249084249085,886.0439560439561,300.989010989011,746.2271062271062
eeg_raw,1580074116368788,1053.6630036630038,915.054945054945,1309.5238095238096,1643.1501831501832
eeg_raw,1580074116369454,1101.6117216117216,893.2967032967033,103.55311355311356,1495.6776556776558
eeg_raw,1580074116370315,796.996336996337,842.5274725274726,981.5384615384615,528.2417582417582
eeg_raw,1580074116371165,539.1208791208792,826.4102564102565,0.0,0.0
eeg_raw,1580074116372013,682.1611721611722,880.4029304029305,237.72893772893772,613.2600732600732
eeg_raw,1580074116372869,1035.128205128205,908.2051282051282,1205.1648351648353,1560.1465201465203
eeg_raw,1580074116373589,1116.923076923077,898.1318681318681,129.74358974358975,1566.1904761904761
eeg_raw,1580074116374199,832.4542124542124,824.7985347985348,1089.1208791208792,639.8534798534798
eeg_raw,1580074116402451,547.985347985348,786.9230769230769,30.622710622710624,0.0
eeg_raw,1580074116402969,641.0622710622711,855.4212454212454,128.93772893772893,471.02564102564105
eeg_raw,1580074116403396,991.6117216117217,891.6849816849817,1071.7948717948718,1454.981684981685
eeg_raw,1580074116403801,1123.772893772894,872.7472527472528,126.11721611721612,1630.2564102564104
eeg_raw,1580074116404203,867.5091575091575,817.1428571428571,1192.6739926739926,758.3150183150184
eeg_raw,1580074116404583,567.3260073260074,778.4615384615385,145.45787545787547,0.0
eeg_raw,1580074116404968,614.0659340659341,826.007326007326,31.42857142857143,350.54945054945057
eeg_raw,1580074116405359,955.7509157509157,883.2234432234433,942.8571428571429,1342.967032967033
eeg_raw,1580074116405733,1131.4285714285716,873.1501831501831,129.74358974358975,32.637362637362635
eeg_raw,1580074116406124,913.8461538461539,807.8754578754579,1218.0586080586081,877.985347985348
eeg_raw,1580074116406506,593.5164835164835,783.2967032967033,174.46886446886447,0.0
eeg_raw,1580074116412054,576.1904761904763,834.8717948717949,0.0,254.65201465201466
eeg_raw,1580074116456510,902.967032967033,900.1465201465202,811.0989010989011,1240.6227106227107
eeg_raw,1580074116457049,1124.981684981685,916.6666666666667,64.06593406593407,68.9010989010989
eeg_raw,1580074116457415,948.4981684981685,876.3736263736264,1382.4542124542124,991.6117216117217
eeg_raw,1580074116457762,621.3186813186813,861.0622710622711,410.1831501831502,53.58974358974359
eeg_raw,1580074116458088,558.8644688644689,882.4175824175825,0.0,172.05128205128204
eeg_raw,1580074116458430,862.2710622710623,930.3663003663004,629.7802197802198,1129.8168498168498
eeg_raw,1580074116458781,1122.967032967033,934.7985347985348,1617.7655677655678,92.27106227106228
eeg_raw,1580074116459124,994.4322344322345,880.0,1436.4468864468865,1119.3406593406594
eeg_raw,1580074116459458,657.1794871794872,834.0659340659341,483.91941391941396,145.45787545787547
eeg_raw,1580074116459958,549.1941391941392,830.0366300366301,0.0,102.74725274725274
eeg_raw,1580074116460354,814.3223443223443,876.3736263736264,562.0879120879121,1019.0109890109891
eeg_raw,1580074116460729,1116.5201465201465,909.0109890109891,1591.978021978022,93.88278388278388
eeg_raw,1580074116540923,1042.3809523809525,873.5531135531136,1568.6080586080586,1249.89010989011
eeg_raw,1580074116552036,686.1904761904763,815.934065934066,607.2161172161173,259.4871794871795
eeg_raw,1580074116554420,533.4798534798535,817.5457875457876,0.0,35.05494505494506
eeg_raw,1580074116554986,778.4615384615385,866.7032967032967,413.4065934065934,878.3882783882784
eeg_raw,1580074116555393,1095.1648351648353,880.4029304029305,1425.1648351648353,62.85714285714286
eeg_raw,1580074116555838,1053.6630036630038,851.7948717948718,1646.3736263736264,1354.2490842490843
eeg_raw,1580074116556239,709.9633699633699,803.4432234432235,742.1978021978023,357.3992673992674
eeg_raw,1580074116556670,511.31868131868134,792.967032967033,0.0,0.0
eeg_raw,1580074116557045,720.8424908424909,851.7948717948718,294.54212454212455,735.3479853479854
eeg_raw,1580074116557455,1050.03663003663,878.3882783882784,1248.6813186813188,1642.7472527472528
eeg_raw,1580074116557841,1048.4249084249084,875.9706959706959,65.27472527472527,1432.4175824175825
eeg_raw,1580074116558229,720.4395604395604,844.945054945055,931.1721611721612,449.6703296703297
eeg_raw,1580074116586848,489.5604395604396,834.0659340659341,0.0,0.0
eeg_raw,1580074116587279,659.1941391941392,890.4761904761905,211.94139194139194,608.8278388278388
eeg_raw,1580074116587606,1002.893772893773,942.0512820512821,1177.3626373626373,1570.6227106227107
eeg_raw,1580074116587941,1075.4212454212454,936.007326007326,92.27106227106228,1519.85347985348
eeg_raw,1580074116588257,790.5494505494506,871.5384615384615,1023.8461538461539,562.4908424908425
eeg_raw,1580074116588579,532.2710622710623,853.4065934065934,78.16849816849818,0.0
eeg_raw,1580074116588907,654.7619047619048,897.7289377289378,72.93040293040293,492.3809523809524
eeg_raw,1580074116589233,1009.3406593406594,935.6043956043957,857.032967032967,1472.7106227106228
eeg_raw,1580074116589902,1122.967032967033,953.7362637362637,57.61904761904762,1587.5457875457876
eeg_raw,1580074116591764,865.0915750915751,903.3699633699634,1218.0586080586081,685.7875457875458
eeg_raw,1580074116592204,582.2344322344322,865.8974358974359,182.52747252747253,0.0
eeg_raw,1580074116592549,639.8534798534798,901.7582417582418,0.0,380.3663003663004
eeg_raw,1580074116614076,980.7326007326008,965.4212454212454,845.3479853479854,1370.3663003663005
eeg_raw,1580074116614601,1131.025641025641,974.2857142857143,112.82051282051282,4.029304029304029
eeg_raw,1580074116614972,901.3553113553114,911.8315018315019,1300.6593406593406,816.7399267399268
eeg_raw,1580074116615371,600.3663003663004,883.2234432234433,289.7069597069597,0.0
eeg_raw,1580074116615738,606.4102564102565,907.8021978021978,0.0,286.8864468864469
eeg_raw,1580074116616093,933.1868131868132,962.6007326007326,725.2747252747253,1274.4688644688645
eeg_raw,1580074116616439,1131.025641025641,979.5238095238095,26.996336996336996,58.42490842490842
eeg_raw,1580074116616770,936.4102564102565,926.7399267399268,1427.985347985348,962.1978021978023
eeg_raw,1580074116617070,614.0659340659341,872.3443223443223,439.5970695970696,38.27838827838828
eeg_raw,1580074116617390,574.5787545787546,861.8681318681319,0.0,188.97435897435898
eeg_raw,1580074116617680,884.8351648351648,923.919413919414,571.7582417582418,1152.7838827838827
eeg_raw,1580074116617993,1128.6080586080586,968.2417582417582,1629.4505494505495,85.42124542124543
eeg_raw,1580074116639230,978.3150183150184,919.4871794871796,1531.9413919413919,1093.956043956044
eeg_raw,1580074116639842,647.9120879120879,853.8095238095239,563.6996336996338,126.52014652014653
eeg_raw,1580074116640318,558.8644688644689,856.6300366300367,0.0,115.23809523809524
alpha_absolute,1580074116652942,0.0,0.0,0.0,0.0
beta_absolute,1580074116654931,0.0,0.0,0.0,0.0
theta_absolute,1580074116655364,0.0,0.0,0.0,0.0
alpha_relative,1580074116655755,NaN,NaN,NaN,NaN
beta_relative,1580074116656131,NaN,NaN,NaN,NaN
theta_relative,1580074116657037,NaN,NaN,NaN,NaN
eeg_raw,1580074116640742,842.9304029304029,931.978021978022,606.8131868131868,1046.4102564102564
eeg_raw,1580074116658367,1126.5934065934066,950.9157509157509,1612.5274725274726,94.28571428571429
eeg_raw,1580074116658794,1020.2197802197802,915.4578754578755,1545.6410256410256,1212.820512820513
eeg_raw,1580074116659212,684.5787545787546,865.4945054945056,622.1245421245421,225.64102564102564
eeg_raw,1580074116659626,550.0,856.2271062271062,0.0,56.41025641025641
eeg_raw,1580074116660061,796.996336996337,928.3516483516484,464.1758241758242,927.948717948718
eeg_raw,1580074116660582,1109.2673992673992,948.0952380952381,1503.3333333333335,76.95970695970696
eeg_raw,1580074116660970,1052.051282051282,898.5347985347986,2.8205128205128207,1329.6703296703297
eeg_raw,1580074116661370,715.2014652014652,818.7545787545788,753.0769230769231,330.4029304029304
eeg_raw,1580074116689139,541.1355311355311,801.8315018315019,0.0,9.267399267399268
eeg_raw,1580074116689593,757.5091575091575,864.2857142857143,388.42490842490844,817.5457875457876
eeg_raw,1580074116690115,1088.7179487179487,895.3113553113553,1392.5274725274726,30.21978021978022
eeg_raw,1580074116690663,1087.1062271062272,871.1355311355312,87.43589743589745,1419.1208791208792
eeg_raw,1580074116691125,756.7032967032967,813.5164835164835,916.2637362637363,429.1208791208791
eeg_raw,1580074116691561,541.1355311355311,799.0109890109891,0.0,0.0
eeg_raw,1580074116691946,723.2600732600732,857.4358974358975,276.007326007326,684.5787545787546
eeg_raw,1580074116692359,1064.1391941391942,904.1758241758242,1271.6483516483518,1602.051282051282
eeg_raw,1580074116692750,1112.4908424908426,879.1941391941392,123.69963369963371,1517.838827838828
eeg_raw,1580074116693172,805.054945054945,800.6227106227107,958.5714285714286,558.8644688644689
eeg_raw,1580074116693617,556.8498168498169,783.2967032967033,0.0,0.0
eeg_raw,1580074116694029,691.4285714285714,836.0805860805862,205.4945054945055,566.9230769230769
eeg_raw,1580074116773055,1030.6959706959708,871.941391941392,1150.3663003663005,1521.868131868132
eeg_raw,1580074116774631,1127.3992673992675,854.2124542124542,110.8058608058608,1583.919413919414
eeg_raw,1580074116776606,848.974358974359,791.7582417582418,1053.6630036630038,672.893772893773
eeg_raw,1580074116777562,566.9230769230769,778.8644688644689,60.03663003663004,0.0
eeg_raw,1580074116778288,660.4029304029305,820.7692307692308,114.83516483516483,430.73260073260076
alpha_absolute,1580074116781958,0.0,0.0,0.0,0.0
beta_absolute,1580074116782734,0.0,0.0,0.0,0.0
theta_absolute,1580074116783317,0.0,0.0,0.0,0.0
alpha_relative,1580074116783895,NaN,NaN,NaN,NaN
beta_relative,1580074116784422,NaN,NaN,NaN,NaN
theta_relative,1580074116784931,NaN,NaN,NaN,NaN
eeg_raw,1580074116779136,999.2673992673992,863.8827838827839,1027.0695970695972,1411.4652014652015
eeg_raw,1580074116787048,1135.8608058608058,853.4065934065934,99.92673992673993,1644.3589743589744
eeg_raw,1580074116789060,883.2234432234433,798.2051282051282,1197.1062271062272,794.1758241758242
eeg_raw,1580074116789894,575.7875457875458,775.6410256410256,196.63003663003664,0.0
eeg_raw,1580074116790725,617.6923076923077,803.4432234432235,26.996336996336996,307.03296703296706
eeg_raw,1580074116791564,959.7802197802198,855.0183150183151,929.96336996337,1294.6153846153848
eeg_raw,1580074116792713,1143.919413919414,840.1098901098901,89.85347985347985,41.904761904761905
eeg_raw,1580074116822820,925.5311355311355,778.8644688644689,1411.062271062271,924.7252747252747
eeg_raw,1580074116823356,602.3809523809524,744.2124542124542,420.65934065934067,24.175824175824175
eeg_raw,1580074116823735,583.8461538461538,773.2234432234433,0.0,211.13553113553115
eeg_raw,1580074116824112,901.7582417582418,836.0805860805862,777.6556776556777,1190.2564102564104
eeg_raw,1580074116824536,1131.8315018315018,835.2747252747253,34.24908424908425,71.31868131868131
eeg_raw,1580074116824951,969.8534798534798,778.4615384615385,1472.3076923076924,1017.3992673992674
eeg_raw,1580074116825339,633.0036630036631,730.9157509157509,506.4835164835165,86.22710622710623
eeg_raw,1580074116825823,558.0586080586081,736.959706959707,0.0,135.3846153846154
eeg_raw,1580074116826238,862.6739926739926,791.3553113553114,702.3076923076924,1068.1684981684982
eeg_raw,1580074116826642,1129.8168498168498,804.2490842490843,1645.5677655677657,95.8974358974359
eeg_raw,1580074116827027,992.8205128205128,760.7326007326008,1574.6520146520147,1156.4102564102564
eeg_raw,1580074116827449,653.956043956044,713.1868131868132,650.7326007326008,172.05128205128204
eeg_raw,1580074116848730,546.7765567765568,728.0952380952381,0.0,74.54212454212454
eeg_raw,1580074116849491,814.7252747252747,782.4908424908425,511.72161172161174,967.8388278388279
eeg_raw,1580074116850164,1107.2527472527472,796.5934065934066,1502.930402930403,89.85347985347985
eeg_raw,1580074116850733,1029.0842490842492,769.5970695970697,1638.3150183150183,1265.6043956043957
eeg_raw,1580074116851282,698.6813186813187,709.9633699633699,752.6739926739926,276.007326007326
eeg_raw,1580074116851844,547.985347985348,695.054945054945,0.0,19.340659340659343
eeg_raw,1580074116852396,780.0732600732601,747.8388278388279,319.9267399267399,836.4835164835165
alpha_absolute,1580074116855323,0.0,0.0,0.0,0.0
beta_absolute,1580074116855906,0.0,0.0,0.0,0.0
theta_absolute,1580074116856341,0.0,0.0,0.0,0.0
alpha_relative,1580074116856740,NaN,NaN,NaN,NaN
beta_relative,1580074116857118,NaN,NaN,NaN,NaN
theta_relative,1580074116857493,NaN,NaN,NaN,NaN
eeg_raw,1580074116852949,1090.7326007326008,779.6703296703297,1280.915750915751,47.54578754578755
eeg_raw,1580074116858989,1062.1245421245421,769.5970695970697,76.15384615384616,1395.7509157509157
eeg_raw,1580074116859522,735.3479853479854,711.5750915750916,940.8424908424909,402.12454212454213
eeg_raw,1580074116860092,537.5091575091575,699.0842490842491,0.0,0.0
eeg_raw,1580074116860539,730.9157509157509,750.6593406593407,249.8168498168498,719.2307692307693
eeg_raw,1580074116889376,1067.7655677655678,804.6520146520147,1242.2344322344322,1637.1062271062272
eeg_raw,1580074116889999,1100.805860805861,794.981684981685,105.56776556776558,1472.7106227106228
eeg_raw,1580074116890422,782.0879120879121,728.4981684981685,1000.8791208791209,492.3809523809524
eeg_raw,1580074116890812,537.1062271062272,713.5897435897436,22.967032967032967,0.0
eeg_raw,1580074116891190,688.6080586080586,765.1648351648352,156.33699633699635,614.4688644688645
eeg_raw,1580074116891610,1036.7399267399267,828.021978021978,1104.835164835165,1558.1318681318683
eeg_raw,1580074116892006,1117.7289377289378,843.3333333333334,123.2967032967033,1550.4761904761906
eeg_raw,1580074116892402,833.6630036630037,806.2637362637363,1124.981684981685,613.6630036630037
eeg_raw,1580074116892787,558.4615384615385,790.952380952381,132.96703296703296,0.0
eeg_raw,1580074116893188,659.1941391941392,827.2161172161173,0.0,481.9047619047619
eeg_raw,1580074116893571,996.0439560439561,903.3699633699634,850.5860805860806,1455.787545787546
eeg_raw,1580074116893982,1113.2967032967033,932.7838827838829,111.61172161172162,1615.3479853479853
eeg_raw,1580074116960329,865.8974358974359,883.6263736263736,1285.7509157509157,736.959706959707
eeg_raw,1580074116960946,567.3260073260074,848.974358974359,234.5054945054945,0.0
eeg_raw,1580074116961516,618.4981684981685,889.2673992673992,17.326007326007325,365.05494505494505
eeg_raw,1580074116962097,954.1391941391942,963.0036630036631,944.8717948717949,1352.6373626373627
eeg_raw,1580074116962655,1128.6080586080586,962.6007326007326,112.01465201465201,15.311355311355312
eeg_raw,1580074116963210,916.2637362637363,905.3846153846154,1276.080586080586,862.2710622710623
eeg_raw,1580074116963765,584.6520146520147,868.3150183150184,281.24542124542126,0.0
eeg_raw,1580074116964283,582.2344322344322,892.893772893773,0.0,263.1135531135531
eeg_raw,1580074116964793,924.7252747252747,964.2124542124542,801.8315018315019,1251.5018315018315
alpha_absolute,1580074116967848,0.0,0.0,0.0,0.0
beta_absolute,1580074116968477,0.0,0.0,0.0,0.0
theta_absolute,1580074116968930,0.0,0.0,0.0,0.0
alpha_relative,1580074116969372,NaN,NaN,NaN,NaN
beta_relative,1580074116969897,NaN,NaN,NaN,NaN
theta_relative,1580074116970328,NaN,NaN,NaN,NaN
eeg_raw,1580074116965358,1131.4285714285716,974.2857142857143,78.57142857142857,58.02197802197802
eeg_raw,1580074116972157,939.6336996336996,921.9047619047619,1445.3113553113553,983.956043956044
eeg_raw,1580074116972765,611.2454212454213,863.4798534798535,475.45787545787545,60.03663003663004
eeg_raw,1580074117008806,562.893772893773,874.3589743589744,0.0,168.82783882783883
eeg_raw,1580074117009345,877.985347985348,937.6190476190476,682.1611721611722,1131.8315018315018
eeg_raw,1580074117009912,1127.8021978021977,944.0659340659341,11.282051282051283,88.64468864468864
eeg_raw,1580074117010401,977.9120879120879,884.0293040293041,1511.7948717948718,1100.805860805861
eeg_raw,1580074117010823,647.5091575091575,824.3956043956044,560.8791208791209,133.77289377289378
eeg_raw,1580074117011280,545.5677655677656,836.0805860805862,0.0,106.77655677655677
eeg_raw,1580074117011696,818.7545787545788,901.3553113553114,481.50183150183153,1020.6227106227107
eeg_raw,1580074117012153,1111.6849816849817,931.1721611721612,1523.4798534798535,90.25641025641026
eeg_raw,1580074117012610,1021.4285714285714,888.0586080586081,1618.1684981684982,1238.2051282051282
eeg_raw,1580074117013076,686.1904761904763,815.5311355311355,649.92673992674,242.16117216117217
eeg_raw,1580074117013597,539.1208791208792,803.8461538461539,0.0,49.96336996336996
eeg_raw,1580074117014058,775.6410256410256,845.3479853479854,427.1062271062271,910.6227106227107
eeg_raw,1580074117035578,1087.1062271062272,873.956043956044,1453.3699633699634,66.48351648351648
eeg_raw,1580074117036225,1046.0073260073261,831.2454212454213,28.205128205128204,1342.967032967033
eeg_raw,1580074117036693,709.9633699633699,763.1501831501831,727.2893772893773,349.7435897435898
eeg_raw,1580074117037085,525.8241758241759,775.2380952380953,0.0,0.0
eeg_raw,1580074117037493,738.1684981684982,823.992673992674,325.16483516483515,776.4468864468864
eeg_raw,1580074117037902,1066.1538461538462,847.7655677655678,1311.9413919413919,16.923076923076923
eeg_raw,1580074117038299,1075.4212454212454,815.5311355311355,41.904761904761905,1454.5787545787546
eeg_raw,1580074117038722,760.7326007326008,746.2271062271062,765.5677655677656,475.05494505494505
eeg_raw,1580074117039140,532.6739926739926,755.4945054945055,0.0,0.0
eeg_raw,1580074117039545,699.8901098901099,813.919413919414,294.54212454212455,647.1062271062272
eeg_raw,1580074117040049,1041.5750915750916,845.7509157509157,1286.1538461538462,1589.1575091575091
alpha_absolute,1580074117042790,0.0,0.0,0.0,0.0
beta_absolute,1580074117043345,0.0,0.0,0.0,0.0
theta_absolute,1580074117043740,0.0,0.0,0.0,0.0
alpha_relative,1580074117044131,NaN,NaN,NaN,NaN
beta_relative,1580074117044532,NaN,NaN,NaN,NaN
theta_relative,1580074117044888,NaN,NaN,NaN,NaN
eeg_raw,1580074117040536,1101.2087912087914,805.4578754578755,69.3040293040293,1521.062271062271
eeg_raw,1580074117066250,801.025641025641,734.945054945055,833.2600732600733,561.6849816849817
eeg_raw,1580074117066877,541.941391941392,738.974358974359,0.0,0.0
eeg_raw,1580074117067331,666.0439560439561,786.1172161172161,168.42490842490844,520.5860805860806
eeg_raw,1580074117067797,1001.6849816849817,836.886446886447,1099.5970695970695,1493.2600732600733
eeg_raw,1580074117068259,1108.8644688644688,823.5897435897436,120.87912087912088,1590.7692307692307
eeg_raw,1580074117068714,846.959706959707,746.2271062271062,1074.2124542124543,683.3699633699634
eeg_raw,1580074117069174,552.4175824175825,719.6336996336996,72.52747252747253,0.0
eeg_raw,1580074117069598,621.7216117216118,764.3589743589744,60.03663003663004,408.974358974359
eeg_raw,1580074117070121,969.8534798534798,814.7252747252747,1006.1172161172161,1401.3919413919414
eeg_raw,1580074117070608,1122.5641025641025,797.3992673992674,83.00366300366301,1647.1794871794873
eeg_raw,1580074117071081,887.2527472527473,748.2417582417582,1137.0695970695972,789.7435897435897
eeg_raw,1580074117071533,578.6080586080586,734.945054945055,219.1941391941392,0.0
eeg_raw,1580074117124974,596.3369963369963,758.3150183150184,0.0,294.54212454212455
eeg_raw,1580074117126363,926.3369963369963,806.6666666666667,844.945054945055,1283.7362637362637
eeg_raw,1580074117127663,1123.3699633699634,815.934065934066,83.80952380952381,40.6959706959707
eeg_raw,1580074117131749,923.5164835164835,776.8498168498169,1401.3919413919414,909.8168498168499
eeg_raw,1580074117132657,601.5750915750916,739.3772893772893,413.003663003663,22.967032967032967
eeg_raw,1580074117133481,566.9230769230769,768.7912087912088,0.0,199.45054945054946
eeg_raw,1580074117134213,879.5970695970697,837.6923076923077,706.7399267399268,1171.7216117216117
eeg_raw,1580074117135567,1124.1758241758241,863.4798534798535,17.72893772893773,72.12454212454213
eeg_raw,1580074117136515,964.2124542124542,832.4542124542124,1483.5897435897436,1044.3956043956043
eeg_raw,1580074117138280,630.5860805860806,783.2967032967033,505.6776556776557,114.02930402930403
eeg_raw,1580074117142270,553.6263736263736,809.0842490842491,0.0,114.83516483516483
eeg_raw,1580074117144019,843.3333333333334,863.0769230769231,556.4468864468864,1039.96336996337
eeg_raw,1580074117166375,1108.4615384615386,886.8498168498169,1514.6153846153848,85.82417582417582
alpha_absolute,1580074117168963,0.0,0.0,0.0,0.0
beta_absolute,1580074117169450,0.0,0.0,0.0,0.0
theta_absolute,1580074117169791,0.0,0.0,0.0,0.0
alpha_relative,1580074117170065,NaN,NaN,NaN,NaN
beta_relative,1580074117170339,NaN,NaN,NaN,NaN
theta_relative,1580074117170628,NaN,NaN,NaN,NaN
eeg_raw,1580074117166821,992.014652014652,859.8534798534798,1585.934065934066,1162.857142857143
eeg_raw,1580074117171694,666.8498168498169,814.3223443223443,665.2380952380953,195.01831501831504
eeg_raw,1580074117172147,540.3296703296703,822.7838827838829,0.0,61.64835164835165
eeg_raw,1580074117172497,794.5787545787546,864.6886446886447,424.68864468864473,934.3956043956044
eeg_raw,1580074117172856,1092.7472527472528,899.7435897435897,1434.835164835165,69.70695970695971
eeg_raw,1580074117173206,1035.5311355311355,882.8205128205128,25.384615384615387,1296.6300366300366
eeg_raw,1580074117173547,711.978021978022,840.9157509157509,811.0989010989011,320.32967032967036
eeg_raw,1580074117173862,540.3296703296703,842.1245421245421,0.0,10.073260073260073
eeg_raw,1580074117174163,759.5238095238095,877.985347985348,246.996336996337,810.2930402930403
eeg_raw,1580074117174500,1074.6153846153848,921.0989010989011,1233.3699633699634,28.60805860805861
eeg_raw,1580074117174826,1065.7509157509157,899.3406593406594,83.40659340659342,1411.4652014652015
eeg_raw,1580074117229536,745.8241758241759,834.8717948717949,946.886446886447,425.0915750915751
eeg_raw,1580074117230200,532.2710622710623,809.0842490842491,0.0,0.0
eeg_raw,1580074117230553,715.2014652014652,845.3479853479854,284.87179487179486,699.0842490842491
eeg_raw,1580074117230886,1046.8131868131868,896.5201465201466,1314.7619047619048,1616.5567765567766
eeg_raw,1580074117231210,1090.3296703296703,861.8681318681319,95.8974358974359,1500.915750915751
eeg_raw,1580074117231536,785.7142857142858,789.3406593406594,974.2857142857143,534.2857142857143
eeg_raw,1580074117231856,536.7032967032967,759.92673992674,6.446886446886447,0.0
eeg_raw,1580074117232162,675.3113553113553,809.4871794871796,159.15750915750917,568.5347985347986
eeg_raw,1580074117232485,1010.5494505494506,885.2380952380953,1138.6813186813188,1526.3003663003662
eeg_raw,1580074117232797,1114.1025641025642,872.3443223443223,118.05860805860806,1576.6666666666667
eeg_raw,1580074117233118,834.4688644688645,809.8901098901099,1226.1172161172162,657.5824175824176
eeg_raw,1580074117233457,541.941391941392,786.5201465201466,201.06227106227107,0.0
eeg_raw,1580074117281368,630.989010989011,838.4981684981685,79.78021978021978,441.61172161172163
eeg_raw,1580074117282474,979.1208791208792,896.1172161172161,1037.142857142857,1422.3443223443223
eeg_raw,1580074117283267,1116.923076923077,887.2527472527473,114.43223443223444,1628.6446886446886
alpha_absolute,1580074117286943,0.0,0.0,0.0,0.0
beta_absolute,1580074117287767,0.0,0.0,0.0,0.0
theta_absolute,1580074117290605,0.0,0.0,0.0,0.0
alpha_relative,1580074117293275,NaN,NaN,NaN,NaN
beta_relative,1580074117293890,NaN,NaN,NaN,NaN
theta_relative,1580074117295324,NaN,NaN,NaN,NaN
eeg_raw,1580074117284046,867.9120879120879,839.7069597069598,1249.0842490842492,753.8827838827839
eeg_raw,1580074117297693,563.6996336996338,791.3553113553114,239.74358974358975,0.0
eeg_raw,1580074117298504,601.978021978022,835.2747252747253,0.0,315.0915750915751
eeg_raw,1580074117299632,942.4542124542124,911.0256410256411,871.941391941392,1301.062271062271
eeg_raw,1580074117300429,1119.3406593406594,896.9230769230769,89.85347985347985,31.831501831501832
eeg_raw,1580074117300889,908.2051282051282,841.3186813186813,1374.3956043956043,885.2380952380953
eeg_raw,1580074117301285,589.4871794871796,791.3553113553114,356.1904761904762,2.417582417582418
eeg_raw,1580074117301693,570.5494505494505,830.4395604395604,0.0,228.86446886446888
eeg_raw,1580074117302101,896.9230769230769,896.9230769230769,803.8461538461539,1207.1794871794873
eeg_raw,1580074117326796,1112.4908424908426,896.1172161172161,70.51282051282051,65.67765567765568
eeg_raw,1580074117327391,944.4688644688645,843.7362637362637,1423.956043956044,1008.5347985347986
eeg_raw,1580074117327829,618.0952380952381,794.1758241758242,412.1978021978022,79.37728937728939
eeg_raw,1580074117328226,547.5824175824176,823.1868131868132,0.0,141.42857142857144
eeg_raw,1580074117328603,852.6007326007326,880.8058608058608,599.1575091575091,1075.8241758241759
eeg_raw,1580074117328989,1114.9084249084249,881.6117216117217,1629.4505494505495,83.00366300366301
eeg_raw,1580074117329383,981.1355311355312,824.7985347985348,1424.7619047619048,1124.981684981685
eeg_raw,1580074117329850,646.3003663003664,776.4468864468864,408.57142857142856,157.94871794871796
eeg_raw,1580074117330282,537.9120879120879,808.2783882783883,0.0,79.78021978021978
eeg_raw,1580074117330655,813.5164835164835,868.3150183150184,499.2307692307692,958.974358974359
eeg_raw,1580074117331071,1104.835164835165,878.3882783882784,1538.7912087912089,80.98901098901099
eeg_raw,1580074117331480,1019.4139194139194,825.6043956043957,1552.8937728937728,1260.3663003663005
eeg_raw,1580074117377209,685.3846153846154,786.1172161172161,584.6520146520147,264.32234432234435
eeg_raw,1580074117377802,537.1062271062272,808.6813186813187,0.0,33.443223443223445
eeg_raw,1580074117378241,770.4029304029305,863.0769230769231,384.79853479853483,855.4212454212454
eeg_raw,1580074117378663,1089.1208791208792,903.3699633699634,1418.7179487179487,49.15750915750916
eeg_raw,1580074117379068,1065.3479853479853,873.956043956044,1610.10989010989,1363.113553113553
alpha_absolute,1580074117381618,0.0,0.0,0.0,0.0
beta_absolute,1580074117382067,0.0,0.0,0.0,0.0
theta_absolute,1580074117382340,0.0,0.0,0.0,0.0
alpha_relative,1580074117382602,NaN,NaN,NaN,NaN
beta_relative,1580074117382845,NaN,NaN,NaN,NaN
theta_relative,1580074117383092,NaN,NaN,NaN,NaN
eeg_raw,1580074117379467,737.7655677655678,820.3663003663004,652.3443223443223,363.4432234432235
eeg_raw,1580074117384056,540.3296703296703,818.7545787545788,0.0,0.0
eeg_raw,1580074117384366,731.7216117216118,869.5238095238095,258.27838827838826,709.1575091575091
eeg_raw,1580074117384668,1060.915750915751,918.6813186813187,1266.0073260073261,1622.1978021978023
eeg_raw,1580074117384991,1079.047619047619,874.3589743589744,1602.857142857143,1467.8754578754579
eeg_raw,1580074117385301,765.9706959706959,812.7106227106227,670.8791208791209,481.50183150183153
eeg_raw,1580074117385632,530.6593406593407,813.5164835164835,0.0,0.0
eeg_raw,1580074117406495,684.981684981685,857.032967032967,239.34065934065936,592.3076923076924
eeg_raw,1580074117407029,1027.4725274725274,897.3260073260074,1197.5091575091576,1558.1318681318683
eeg_raw,1580074117407456,1098.7912087912089,870.3296703296703,103.15018315018315,1530.3296703296703
eeg_raw,1580074117407826,809.4871794871796,821.5750915750916,1052.051282051282,574.5787545787546
eeg_raw,1580074117408199,547.1794871794872,796.5934065934066,72.52747252747253,0.0
eeg_raw,1580074117408550,656.7765567765568,839.3040293040293,83.00366300366301,474.65201465201466
eeg_raw,1580074117408885,997.6556776556777,885.6410256410256,1026.6666666666667,1448.5347985347985
eeg_raw,1580074117409224,1119.7435897435898,870.7326007326008,125.31135531135531,1599.6336996336997
eeg_raw,1580074117409567,856.6300366300367,828.021978021978,1231.7582417582419,701.0989010989011
eeg_raw,1580074117409969,561.6849816849817,799.8168498168499,210.32967032967034,0.0
eeg_raw,1580074117410329,626.959706959707,834.8717948717949,0.0,352.16117216117215
eeg_raw,1580074117410698,964.2124542124542,885.2380952380953,843.7362637362637,1346.1904761904761
eeg_raw,1580074117452790,1116.5201465201465,892.0879120879121,61.24542124542125,10.073260073260073
eeg_raw,1580074117453369,889.2673992673992,838.4981684981685,1365.934065934066,815.934065934066
eeg_raw,1580074117453794,578.6080586080586,794.5787545787546,337.65567765567766,0.0
eeg_raw,1580074117454198,589.0842490842491,829.6336996336996,5.641025641025641,253.04029304029305
eeg_raw,1580074117454562,917.8754578754579,871.941391941392,826.8131868131868,1239.010989010989
eeg_raw,1580074117454889,1116.923076923077,877.1794871794872,11.282051282051283,54.7985347985348
eeg_raw,1580074117455239,929.1575091575091,844.5421245421246,1453.3699633699634,950.5128205128206
alpha_absolute,1580074117457333,0.0,0.0,0.0,0.0
beta_absolute,1580074117457736,0.0,0.0,0.0,0.0
theta_absolute,1580074117458011,0.0,0.0,0.0,0.0
alpha_relative,1580074117458258,NaN,NaN,NaN,NaN
beta_relative,1580074117458505,NaN,NaN,NaN,NaN
theta_relative,1580074117458760,NaN,NaN,NaN,NaN
eeg_raw,1580074117455542,604.3956043956044,798.2051282051282,461.75824175824175,45.934065934065934
eeg_raw,1580074117459669,566.1172161172161,830.0366300366301,0.0,153.1135531135531
eeg_raw,1580074117460052,879.5970695970697,869.1208791208792,554.8351648351648,1103.6263736263736
eeg_raw,1580074117460381,1120.5494505494505,895.3113553113553,1486.4102564102564,79.37728937728939
eeg_raw,1580074117460697,969.4505494505495,880.8058608058608,1577.8754578754579,1056.080586080586
eeg_raw,1580074117518186,640.6593406593407,830.0366300366301,623.7362637362637,108.3882783882784
eeg_raw,1580074117526857,557.6556776556777,834.8717948717949,0.0,103.15018315018315
eeg_raw,1580074117529591,834.8717948717949,903.3699633699634,476.2637362637363,1003.6996336996338
eeg_raw,1580074117530542,1104.835164835165,950.1098901098901,1530.3296703296703,83.40659340659342
eeg_raw,1580074117531345,1010.1465201465202,899.7435897435897,1604.4688644688645,1182.1978021978023
eeg_raw,1580074117533100,676.1172161172161,834.8717948717949,639.047619047619,201.06227106227107
eeg_raw,1580074117534341,533.8827838827839,827.6190476190476,0.0,53.58974358974359
eeg_raw,1580074117535244,786.1172161172161,871.941391941392,404.54212454212455,886.8498168498169
eeg_raw,1580074117540942,1091.9413919413919,910.2197802197802,1434.4322344322345,58.82783882783883
eeg_raw,1580074117541594,1042.7838827838827,867.1062271062272,26.19047619047619,1303.882783882784
eeg_raw,1580074117542155,712.7838827838829,812.7106227106227,774.8351648351648,303.8095238095238
eeg_raw,1580074117542697,535.0915750915751,802.2344322344322,0.0,6.446886446886447
eeg_raw,1580074117600038,743.8095238095239,866.7032967032967,276.4102564102564,768.3882783882784
eeg_raw,1580074117600872,1064.1391941391942,929.96336996337,1276.886446886447,2.8205128205128207
eeg_raw,1580074117601554,1076.6300366300366,898.9377289377289,94.68864468864469,1424.3589743589744
eeg_raw,1580074117602283,756.3003663003664,843.7362637362637,932.7838827838829,431.13553113553115
eeg_raw,1580074117602880,531.8681318681319,825.2014652014652,0.0,0.0
eeg_raw,1580074117603391,708.7545787545788,882.8205128205128,202.27106227106228,653.1501831501831
eeg_raw,1580074117603956,1046.8131868131868,942.0512820512821,1189.4505494505495,1589.5604395604396
eeg_raw,1580074117604534,1093.1501831501832,913.4432234432235,123.69963369963371,1495.6776556776558
eeg_raw,1580074117605122,790.5494505494506,853.0036630036631,1040.7692307692307,524.2124542124542
alpha_absolute,1580074117608167,0.0,0.0,0.0,0.0
beta_absolute,1580074117608776,0.0,0.0,0.0,0.0
theta_absolute,1580074117609234,0.0,0.0,0.0,0.0
alpha_relative,1580074117609754,NaN,NaN,NaN,NaN
beta_relative,1580074117610257,NaN,NaN,NaN,NaN
theta_relative,1580074117610743,NaN,NaN,NaN,NaN
eeg_raw,1580074117605693,544.7619047619048,829.6336996336996,37.875457875457876,0.0
eeg_raw,1580074117612355,674.9084249084249,891.6849816849817,141.42857142857144,511.72161172161174
eeg_raw,1580074117613102,1006.5201465201466,964.2124542124542,1093.956043956044,1475.128205128205
eeg_raw,1580074117647581,1102.4175824175825,939.2307692307693,121.28205128205128,1576.2637362637363
eeg_raw,1580074117648354,830.8424908424909,863.0769230769231,1125.3846153846155,653.5531135531136
eeg_raw,1580074117649021,549.1941391941392,826.8131868131868,108.79120879120879,0.0
eeg_raw,1580074117649895,629.3772893772893,866.7032967032967,73.73626373626374,408.16849816849816
eeg_raw,1580074117651098,968.2417582417582,919.0842490842491,977.9120879120879,1394.945054945055
eeg_raw,1580074117651939,1114.1025641025642,915.8608058608058,116.84981684981685,1628.2417582417584
eeg_raw,1580074117652611,879.5970695970697,853.8095238095239,1265.2014652014652,758.3150183150184
eeg_raw,1580074117653330,571.7582417582418,815.934065934066,201.86813186813188,0.0
eeg_raw,1580074117654023,594.3223443223443,878.3882783882784,0.0,293.73626373626377
eeg_raw,1580074117654767,929.1575091575091,945.6776556776557,881.6117216117217,1280.10989010989
eeg_raw,1580074117655512,1119.3406593406594,933.992673992674,114.43223443223444,39.89010989010989
eeg_raw,1580074117656298,912.2344322344322,859.047619047619,1281.3186813186815,883.6263736263736
eeg_raw,1580074117677993,591.5018315018315,823.1868131868132,241.35531135531136,0.0
eeg_raw,1580074117679086,566.5201465201466,871.941391941392,0.0,205.8974358974359
eeg_raw,1580074117680555,880.4029304029305,934.3956043956044,700.2930402930403,1166.080586080586
eeg_raw,1580074117681564,1106.849816849817,950.9157509157509,33.84615384615385,73.73626373626374
eeg_raw,1580074117682423,949.7069597069598,896.5201465201466,1383.6630036630038,1019.0109890109891
eeg_raw,1580074117683116,628.974358974359,846.959706959707,382.7838827838828,76.55677655677655
eeg_raw,1580074117683831,543.5531135531136,866.3003663003664,0.0,127.72893772893774
eeg_raw,1580074117684505,839.3040293040293,929.5604395604396,483.5164835164835,1051.6483516483518
eeg_raw,1580074117685214,1113.2967032967033,955.3479853479854,1558.5347985347985,90.65934065934066
eeg_raw,1580074117692466,984.7619047619048,890.4761904761905,1425.5677655677657,1135.8608058608058
eeg_raw,1580074117694808,650.7326007326008,842.1245421245421,383.5897435897436,152.30769230769232
alpha_absolute,1580074117700134,0.0,0.0,0.0,0.0
beta_absolute,1580074117700568,0.0,0.0,0.0,0.0
theta_absolute,1580074117700805,0.0,0.0,0.0,0.0
alpha_relative,1580074117701033,NaN,NaN,NaN,NaN
beta_relative,1580074117701266,NaN,NaN,NaN,NaN
theta_relative,1580074117701530,NaN,NaN,NaN,NaN
eeg_raw,1580074117697004,533.0769230769231,868.3150183150184,0.0,73.73626373626374
eeg_raw,1580074117702632,800.2197802197802,918.2783882783883,496.007326007326,949.3040293040293
eeg_raw,1580074117702927,1099.1941391941393,942.0512820512821,1509.7802197802198,82.6007326007326
eeg_raw,1580074117703215,1028.2783882783883,904.1758241758242,1606.080586080586,1274.065934065934
eeg_raw,1580074117703504,699.8901098901099,860.6593406593407,694.6520146520147,270.7692307692308
eeg_raw,1580074117703786,538.3150183150183,855.4212454212454,0.0,28.205128205128204
eeg_raw,1580074117704063,767.1794871794872,904.1758241758242,335.23809523809524,848.974358974359
eeg_raw,1580074117704342,1081.062271062271,934.3956043956044,1377.2161172161173,48.35164835164835
eeg_raw,1580074117704633,1060.915750915751,897.7289377289378,1587.142857142857,1381.6483516483518
eeg_raw,1580074117704918,737.3626373626374,866.3003663003664,669.2673992673992,378.35164835164835
eeg_raw,1580074117705199,531.0622710622711,869.5238095238095,0.0,0.0
eeg_raw,1580074117705455,722.8571428571429,913.8461538461539,313.8827838827839,715.6043956043957
eeg_raw,1580074117705741,1065.7509157509157,931.978021978022,1315.970695970696,1630.2564102564104
eeg_raw,1580074117751156,1095.1648351648353,894.1025641025641,60.43956043956044,1475.5311355311355
eeg_raw,1580074117751803,778.0586080586081,857.4358974358975,902.5641025641025,496.4102564102564
eeg_raw,1580074117752321,529.4505494505495,842.5274725274726,0.0,0.0
eeg_raw,1580074117752780,682.967032967033,894.908424908425,199.45054945054946,589.0842490842491
eeg_raw,1580074117753284,1029.0842490842492,928.7545787545788,1138.2783882783883,1533.1501831501832
eeg_raw,1580074117753803,1107.2527472527472,908.2051282051282,98.31501831501832,1552.4908424908426
eeg_raw,1580074117754319,830.8424908424909,872.3443223443223,1102.014652014652,620.5128205128206
eeg_raw,1580074117754814,554.4322344322344,845.3479853479854,95.4945054945055,0.0
eeg_raw,1580074117755294,651.941391941392,891.2820512820513,100.32967032967034,473.0402930402931
eeg_raw,1580074117755798,996.4468864468864,935.2014652014652,911.8315018315019,1453.3699633699634
eeg_raw,1580074117756262,1117.3260073260074,948.901098901099,35.05494505494506,1610.5128205128206
eeg_raw,1580074117756719,871.1355311355312,907.8021978021978,1257.948717948718,740.1831501831502
eeg_raw,1580074117802474,575.7875457875458,857.4358974358975,205.8974358974359,0.0
alpha_absolute,1580074117805179,0.0,0.0,0.0,0.0
beta_absolute,1580074117805703,0.0,0.0,0.0,0.0
theta_absolute,1580074117806022,0.0,0.0,0.0,0.0
alpha_relative,1580074117806334,NaN,NaN,NaN,NaN
beta_relative,1580074117806664,NaN,NaN,NaN,NaN
theta_relative,1580074117806969,NaN,NaN,NaN,NaN
eeg_raw,1580074117803044,614.4688644688645,885.6410256410256,8.058608058608058,359.010989010989
eeg_raw,1580074117808058,948.0952380952381,931.978021978022,866.7032967032967,1355.8608058608058
eeg_raw,1580074117808474,1126.996336996337,919.8901098901099,93.07692307692308,10.476190476190476
eeg_raw,1580074117808863,908.2051282051282,849.7802197802198,1280.5128205128206,870.3296703296703
eeg_raw,1580074117809248,588.6813186813187,813.1135531135532,270.3663003663004,5.238095238095238
eeg_raw,1580074117809626,589.8901098901099,841.3186813186813,0.0,246.1904761904762
eeg_raw,1580074117810112,915.054945054945,891.2820512820513,558.4615384615385,1230.952380952381
eeg_raw,1580074117810532,1131.025641025641,924.7252747252747,1570.6227106227107,44.72527472527473
eeg_raw,1580074117810929,945.2747252747253,880.8058608058608,1439.6703296703297,969.047619047619
eeg_raw,1580074117811325,610.0366300366301,821.1721611721612,415.42124542124543,67.28937728937728
eeg_raw,1580074117811697,556.0439560439561,823.5897435897436,0.0,155.93406593406593
eeg_raw,1580074117898581,875.5677655677656,885.6410256410256,556.4468864468864,1097.985347985348
eeg_raw,1580074117899134,1126.1904761904761,909.8168498168499,1614.945054945055,83.00366300366301
eeg_raw,1580074117899532,977.9120879120879,855.0183150183151,1517.838827838828,1093.1501831501832
eeg_raw,1580074117900193,646.3003663003664,814.7252747252747,536.7032967032967,129.74358974358975
eeg_raw,1580074117900597,550.0,816.7399267399268,0.0,94.68864468864469
eeg_raw,1580074117901145,824.7985347985348,875.5677655677656,433.1501831501832,988.7912087912089
eeg_raw,1580074117901495,1110.4761904761906,900.1465201465202,1478.7545787545787,83.80952380952381
eeg_raw,1580074117901845,1020.6227106227107,854.2124542124542,1606.080586080586,1215.2380952380952
eeg_raw,1580074117902183,676.9230769230769,795.7875457875458,645.8974358974359,232.8937728937729
eeg_raw,1580074117902515,534.6886446886447,778.4615384615385,0.0,29.01098901098901
eeg_raw,1580074117902837,780.8791208791209,837.6923076923077,312.6739926739927,836.886446886447
eeg_raw,1580074117903158,1086.7032967032967,875.9706959706959,1341.3553113553114,49.15750915750916
eeg_raw,1580074117932289,1042.7838827838827,835.6776556776557,1644.7619047619048,1320.805860805861
eeg_raw,1580074117932829,708.3516483516484,772.014652014652,693.4432234432235,319.9267399267399
eeg_raw,1580074117933241,520.989010989011,754.6886446886447,0.0,0.0
alpha_absolute,1580074117935770,0.0,0.0,0.0,0.0
beta_absolute,1580074117936233,0.0,0.0,0.0,0.0
theta_absolute,1580074117936542,0.0,0.0,0.0,0.0
alpha_relative,1580074117936817,NaN,NaN,NaN,NaN
beta_relative,1580074117937085,NaN,NaN,NaN,NaN
theta_relative,1580074117937353,NaN,NaN,NaN,NaN
eeg_raw,1580074117933617,722.8571428571429,827.6190476190476,253.84615384615384,661.2087912087912
eeg_raw,1580074117938348,1043.992673992674,878.7912087912089,1225.7142857142858,1601.2454212454213
eeg_raw,1580074117938742,1056.080586080586,844.945054945055,45.12820512820513,1405.4212454212454
eeg_raw,1580074117939092,736.1538461538462,784.1025641025641,818.7545787545788,400.5128205128205
eeg_raw,1580074117939450,514.1391941391942,767.985347985348,0.0,0.0
eeg_raw,1580074117941012,687.3992673992674,834.0659340659341,188.16849816849816,503.6630036630037
eeg_raw,1580074117941442,1021.0256410256411,874.7619047619048,1133.4432234432236,1499.7069597069597
eeg_raw,1580074117941815,1087.912087912088,861.0622710622711,96.3003663003663,1451.3553113553114
eeg_raw,1580074117942142,801.4285714285714,796.1904761904763,893.2967032967033,458.13186813186815
eeg_raw,1580074117966122,537.9120879120879,776.0439560439561,0.0,0.0
eeg_raw,1580074117966495,657.985347985348,830.0366300366301,110.8058608058608,364.65201465201466
eeg_raw,1580074117966845,1000.0732600732601,868.7179487179487,981.941391941392,1365.934065934066
eeg_raw,1580074117967201,1108.4615384615386,861.0622710622711,136.996336996337,1517.032967032967
eeg_raw,1580074117967582,850.989010989011,797.3992673992674,1049.2307692307693,526.6300366300367
eeg_raw,1580074117967955,564.1025641025641,774.4322344322345,37.875457875457876,0.0
eeg_raw,1580074117968296,628.974358974359,827.6190476190476,14.102564102564102,207.50915750915752
eeg_raw,1580074117968654,970.2564102564103,873.1501831501831,765.1648351648352,1133.8461538461538
eeg_raw,1580074117969009,1121.3553113553114,865.8974358974359,51.172161172161175,1403.8095238095239
eeg_raw,1580074117969364,896.1172161172161,811.0989010989011,1079.047619047619,457.32600732600736
eeg_raw,1580074117969849,593.919413919414,776.0439560439561,87.03296703296704,0.0
eeg_raw,1580074117970225,605.2014652014652,812.3076923076924,0.0,49.15750915750916
eeg_raw,1580074118017470,936.007326007326,874.3589743589744,574.1758241758242,744.2124542124542
eeg_raw,1580074118018018,1148.7545787545787,883.2234432234433,1631.062271062271,1171.3186813186815
eeg_raw,1580074118018474,954.1391941391942,819.96336996337,1129.4139194139195,377.14285714285717
eeg_raw,1580074118018869,614.8717948717949,791.7582417582418,91.46520146520147,1.6117216117216118
eeg_raw,1580074118019233,581.4285714285714,825.6043956043957,0.0,0.0
alpha_absolute,1580074118021940,0.0,0.0,0.0,0.0
beta_absolute,1580074118022397,0.0,0.0,0.0,0.0
theta_absolute,1580074118022699,0.0,0.0,0.0,0.0
alpha_relative,1580074118022975,NaN,NaN,NaN,NaN
beta_relative,1580074118023252,NaN,NaN,NaN,NaN
theta_relative,1580074118023519,NaN,NaN,NaN,NaN
eeg_raw,1580074118019574,894.908424908425,861.4652014652015,477.87545787545787,477.87545787545787
eeg_raw,1580074118024506,1117.7289377289378,861.4652014652015,1479.1575091575091,1002.893772893773
eeg_raw,1580074118024906,960.989010989011,815.5311355311355,1285.7509157509157,358.20512820512823
eeg_raw,1580074118025269,626.959706959707,784.5054945054945,318.71794871794873,2.417582417582418
eeg_raw,1580074118025685,547.1794871794872,799.8168498168499,0.0,0.0
eeg_raw,1580074118026030,836.0805860805862,855.0183150183151,388.42490842490844,324.76190476190476
eeg_raw,1580074118026408,1107.6556776556777,860.6593406593407,1430.0,921.0989010989011
eeg_raw,1580074118049508,1000.4761904761905,799.4139194139194,1377.6190476190477,407.3626373626374
eeg_raw,1580074118050069,664.0293040293041,764.7619047619048,413.4065934065934,0.0
eeg_raw,1580074118050404,539.1208791208792,782.893772893773,0.0,0.0
eeg_raw,1580074118050729,802.2344322344322,840.1098901098901,379.1575091575092,306.2271062271062
eeg_raw,1580074118051105,1102.4175824175825,850.1831501831502,1356.2637362637363,1039.96336996337
eeg_raw,1580074118051496,1038.7545787545787,807.4725274725275,1428.3882783882784,575.7875457875458
eeg_raw,1580074118051887,697.4725274725275,776.0439560439561,542.7472527472528,0.0
eeg_raw,1580074118052282,530.2564102564103,773.6263736263736,0.0,0.0
eeg_raw,1580074118052636,760.3296703296703,826.8131868131868,298.57142857142856,257.87545787545787
eeg_raw,1580074118053024,1081.062271062271,863.4798534798535,1286.5567765567766,1061.3186813186815
eeg_raw,1580074118053424,1068.974358974359,848.5714285714286,30.622710622710624,734.1391941391942
eeg_raw,1580074118053822,748.2417582417582,807.0695970695971,814.7252747252747,30.622710622710624
eeg_raw,1580074118054535,543.956043956044,804.2490842490843,0.0,0.0
eeg_raw,1580074118054935,718.8278388278388,864.2857142857143,210.73260073260073,223.22344322344324
eeg_raw,1580074118055298,1052.4542124542124,897.7289377289378,1079.047619047619,1093.5531135531137
eeg_raw,1580074118055721,1100.4029304029305,896.9230769230769,36.666666666666664,1014.981684981685
eeg_raw,1580074118056099,799.4139194139194,845.3479853479854,1001.2820512820513,178.0952380952381
eeg_raw,1580074118056462,547.5824175824176,801.4285714285714,53.99267399267399,0.0
eeg_raw,1580074118056822,686.5934065934066,846.959706959707,70.10989010989012,254.24908424908426
alpha_absolute,1580074118059485,0.0,0.0,0.0,0.0
beta_absolute,1580074118060017,0.0,0.0,0.0,0.0
theta_absolute,1580074118060300,0.0,0.0,0.0,0.0
alpha_relative,1580074118060584,NaN,NaN,NaN,NaN
beta_relative,1580074118060850,NaN,NaN,NaN,NaN
theta_relative,1580074118061139,NaN,NaN,NaN,NaN
eeg_raw,1580074118057208,1033.5164835164835,896.9230769230769,944.4688644688645,1241.025641025641
eeg_raw,1580074118062117,1120.952380952381,895.7142857142858,107.58241758241759,1359.0842490842492
eeg_raw,1580074118062701,845.7509157509157,827.2161172161173,1048.4249084249084,390.0366300366301
eeg_raw,1580074118063141,567.3260073260074,801.8315018315019,82.1978021978022,0.0
eeg_raw,1580074118063521,650.7326007326008,842.5274725274726,0.0,258.6813186813187
eeg_raw,1580074118100755,987.985347985348,889.2673992673992,759.92673992674,1261.5750915750916
eeg_raw,1580074118101233,1125.787545787546,903.7728937728938,83.80952380952381,1574.2490842490843
eeg_raw,1580074118101701,880.0,841.3186813186813,1243.4432234432236,594.3223443223443
eeg_raw,1580074118102126,574.5787545787546,806.6666666666667,239.34065934065936,0.0
eeg_raw,1580074118102503,619.7069597069598,825.6043956043957,0.0,236.92307692307693
eeg_raw,1580074118102870,952.9304029304029,895.3113553113553,649.92673992674,1201.1355311355312
eeg_raw,1580074118103314,1125.787545787546,938.021978021978,54.395604395604394,29.816849816849818
eeg_raw,1580074118103721,919.4871794871796,877.1794871794872,1363.919413919414,827.6190476190476
eeg_raw,1580074118104129,601.1721611721612,829.6336996336996,365.05494505494505,0.0
eeg_raw,1580074118104522,580.6227106227107,846.5567765567765,0.0,244.981684981685
eeg_raw,1580074118104912,900.5494505494506,915.8608058608058,601.978021978022,1211.6117216117216
eeg_raw,1580074118105377,1129.010989010989,941.2454212454213,11.684981684981686,88.64468864468864
eeg_raw,1580074118155258,956.5567765567766,891.2820512820513,1483.992673992674,1075.4212454212454
eeg_raw,1580074118155746,628.1684981684982,841.7216117216118,490.3663003663004,87.83882783882784
eeg_raw,1580074118156161,565.7142857142858,848.1684981684982,0.0,168.02197802197801
eeg_raw,1580074118156535,848.974358974359,919.4871794871796,689.0109890109891,1140.2930402930403
eeg_raw,1580074118156901,1116.923076923077,923.1135531135532,20.952380952380953,102.34432234432235
eeg_raw,1580074118157288,1001.2820512820513,861.4652014652015,1506.959706959707,1170.10989010989
eeg_raw,1580074118157712,663.6263736263736,820.7692307692308,558.0586080586081,172.05128205128204
eeg_raw,1580074118158111,546.7765567765568,836.4835164835165,0.0,78.57142857142857
eeg_raw,1580074118158473,812.3076923076924,917.0695970695971,535.4945054945055,986.3736263736264
alpha_absolute,1580074118160985,0.0,0.0,0.0,0.0
beta_absolute,1580074118161452,0.0,0.0,0.0,0.0
theta_absolute,1580074118161767,0.0,0.0,0.0,0.0
alpha_relative,1580074118162060,NaN,NaN,NaN,NaN
beta_relative,1580074118162336,NaN,NaN,NaN,NaN
theta_relative,1580074118162653,NaN,NaN,NaN,NaN
eeg_raw,1580074118158819,1104.029304029304,956.5567765567766,1538.3882783882784,96.7032967032967
eeg_raw,1580074118163562,1029.0842490842492,922.7106227106227,1638.7179487179487,1260.7692307692307
eeg_raw,1580074118163959,697.0695970695971,849.3772893772895,715.6043956043957,250.62271062271063
eeg_raw,1580074118226671,535.8974358974359,853.4065934065934,0.0,24.98168498168498
eeg_raw,1580074118227981,766.7765567765568,933.5897435897436,394.46886446886447,894.1025641025641
eeg_raw,1580074118231588,1081.868131868132,960.989010989011,1410.6593406593406,77.76556776556777
eeg_raw,1580074118232488,1058.4981684981685,918.6813186813187,69.70695970695971,1369.5604395604396
eeg_raw,1580074118234677,736.959706959707,842.5274725274726,816.3369963369963,375.53113553113553
eeg_raw,1580074118235550,543.956043956044,826.4102564102565,0.0,0.0
eeg_raw,1580074118236619,742.1978021978023,880.8058608058608,267.14285714285717,691.025641025641
eeg_raw,1580074118237405,1073.4065934065934,912.6373626373627,1239.4139194139195,1633.076923076923
eeg_raw,1580074118238590,1088.3150183150183,882.014652014652,116.84981684981685,1476.3369963369964
eeg_raw,1580074118239383,774.4322344322345,791.7582417582418,905.7875457875458,488.75457875457874
eeg_raw,1580074118240351,547.5824175824176,780.0732600732601,0.0,0.0
eeg_raw,1580074118240794,700.2930402930403,860.6593406593407,234.10256410256412,642.6739926739926
eeg_raw,1580074118260960,1037.948717948718,894.1025641025641,1193.076923076923,1591.978021978022
eeg_raw,1580074118261601,1114.9084249084249,859.8534798534798,120.47619047619048,1584.3223443223444
eeg_raw,1580074118262027,827.2161172161173,785.3113553113553,1041.5750915750916,660.4029304029305
eeg_raw,1580074118262430,555.6410256410256,766.7765567765568,39.08424908424909,0.0
eeg_raw,1580074118262785,665.2380952380953,819.5604395604396,112.41758241758242,548.7912087912088
eeg_raw,1580074118263175,1012.967032967033,873.5531135531136,1044.3956043956043,1521.4652014652015
eeg_raw,1580074118263570,1121.3553113553114,865.0915750915751,122.08791208791209,1644.7619047619048
eeg_raw,1580074118263936,868.7179487179487,805.054945054945,1026.6666666666667,781.2820512820513
eeg_raw,1580074118264300,572.5641025641025,799.0109890109891,32.637362637362635,0.0
eeg_raw,1580074118264634,626.1538461538462,849.7802197802198,86.22710622710623,426.7032967032967
eeg_raw,1580074118264952,974.6886446886447,902.1611721611722,998.0586080586081,1430.805860805861
alpha_absolute,1580074118267303,0.0,0.0,0.0,0.0
beta_absolute,1580074118267726,0.0,0.0,0.0,0.0
theta_absolute,1580074118268020,0.0,0.0,0.0,0.0
alpha_relative,1580074118268301,NaN,NaN,NaN,NaN
beta_relative,1580074118268561,NaN,NaN,NaN,NaN
theta_relative,1580074118268829,NaN,NaN,NaN,NaN
eeg_raw,1580074118265262,1133.0402930402931,886.4468864468864,102.34432234432235,29.01098901098901
eeg_raw,1580074118302516,904.5787545787546,835.6776556776557,1338.937728937729,865.4945054945056
eeg_raw,1580074118302955,587.0695970695971,802.6373626373627,340.8791208791209,0.0
eeg_raw,1580074118303347,584.6520146520147,824.3956043956044,0.0,290.1098901098901
eeg_raw,1580074118303724,915.8608058608058,874.3589743589744,868.3150183150184,1289.7802197802198
eeg_raw,1580074118304119,1126.1904761904761,867.9120879120879,89.45054945054946,61.24542124542125
eeg_raw,1580074118304493,943.2600732600733,814.3223443223443,1359.0842490842492,923.919413919414
eeg_raw,1580074118304898,617.2893772893773,775.2380952380953,368.27838827838826,15.714285714285715
eeg_raw,1580074118305268,568.9377289377289,800.2197802197802,0.0,150.2930402930403
eeg_raw,1580074118305581,872.7472527472528,859.8534798534798,702.7106227106227,1107.6556776556777
eeg_raw,1580074118305938,1118.937728937729,850.989010989011,29.816849816849818,90.65934065934066
eeg_raw,1580074118306283,979.92673992674,805.054945054945,1421.5384615384617,984.7619047619048
eeg_raw,1580074118306644,643.4798534798535,783.2967032967033,475.05494505494505,63.26007326007326
eeg_raw,1580074118336143,548.7912087912088,796.1904761904763,0.0,55.604395604395606
eeg_raw,1580074118336566,832.0512820512821,853.8095238095239,611.6483516483516,902.967032967033
eeg_raw,1580074118336953,1113.6996336996338,869.92673992674,1590.3663003663005,83.40659340659342
eeg_raw,1580074118337353,1012.967032967033,828.8278388278388,1589.1575091575091,1078.2417582417584
eeg_raw,1580074118337777,670.8791208791209,762.3443223443223,668.8644688644689,113.22344322344323
eeg_raw,1580074118338144,532.2710622710623,763.5531135531136,0.0,0.0
eeg_raw,1580074118338508,783.6996336996338,835.6776556776557,417.03296703296706,768.3882783882784
eeg_raw,1580074118338845,1090.7326007326008,858.2417582417582,1396.5567765567766,60.03663003663004
eeg_raw,1580074118339228,1041.1721611721612,840.1098901098901,9.267399267399268,1276.886446886447
eeg_raw,1580074118339588,713.5897435897436,792.967032967033,805.4578754578755,261.0989010989011
eeg_raw,1580074118339996,540.3296703296703,778.0586080586081,0.0,0.0
eeg_raw,1580074118340329,752.6739926739926,813.5164835164835,290.5128205128205,739.7802197802198
eeg_raw,1580074118457371,1078.6446886446886,857.4358974358975,1260.7692307692307,24.175824175824175
alpha_absolute,1580074118462845,0.0,0.0,0.0,0.0
beta_absolute,1580074118463678,0.0,0.0,0.0,0.0
theta_absolute,1580074118464496,0.0,0.0,0.0,0.0
alpha_relative,1580074118465211,NaN,NaN,NaN,NaN
beta_relative,1580074118465813,NaN,NaN,NaN,NaN
theta_relative,1580074118466393,NaN,NaN,NaN,NaN
eeg_raw,1580074118458345,1081.062271062271,846.5567765567765,85.42124542124543,1420.3296703296703
eeg_raw,1580074118468135,759.92673992674,778.4615384615385,935.2014652014652,427.1062271062271
eeg_raw,1580074118468783,539.5238095238095,759.92673992674,0.0,0.0
eeg_raw,1580074118472989,714.7985347985348,791.7582417582418,169.23076923076923,655.1648351648352
eeg_raw,1580074118473969,1043.992673992674,836.0805860805862,1116.5201465201465,1608.901098901099
eeg_raw,1580074118476017,1091.9413919413919,833.2600732600733,118.05860805860806,1555.7142857142858
eeg_raw,1580074118477856,801.025641025641,761.1355311355312,1066.5567765567766,616.4835164835165
eeg_raw,1580074118478551,540.3296703296703,730.5128205128206,83.80952380952381,0.0
eeg_raw,1580074118479005,658.3882783882784,764.3589743589744,29.816849816849818,667.6556776556777
eeg_raw,1580074118479540,1003.6996336996338,825.6043956043957,924.7252747252747,1595.2014652014652
eeg_raw,1580074118480431,1107.6556776556777,829.2307692307693,122.4908424908425,2.8205128205128207
eeg_raw,1580074118503839,838.0952380952381,762.3443223443223,1206.7765567765568,873.5531135531136
eeg_raw,1580074118504340,564.1025641025641,730.9157509157509,159.56043956043956,0.0
eeg_raw,1580074118504720,637.032967032967,777.6556776556777,58.82783882783883,608.021978021978
eeg_raw,1580074118505114,963.0036630036631,853.8095238095239,1002.4908424908425,1568.6080586080586
eeg_raw,1580074118505554,1114.5054945054944,844.5421245421246,124.1025641025641,60.03663003663004
eeg_raw,1580074118505974,884.8351648351648,772.8205128205128,1209.1941391941393,1054.065934065934
eeg_raw,1580074118506326,578.2051282051282,738.5714285714286,205.4945054945055,26.593406593406595
eeg_raw,1580074118506667,603.5897435897436,770.4029304029305,0.0,477.4725274725275
eeg_raw,1580074118506999,924.3223443223443,849.7802197802198,772.014652014652,1484.3956043956046
eeg_raw,1580074118507325,1116.5201465201465,860.2564102564103,67.28937728937728,81.3919413919414
eeg_raw,1580074118507636,924.7252747252747,805.054945054945,1404.2124542124543,1235.3846153846155
eeg_raw,1580074118507930,600.7692307692308,755.4945054945055,405.75091575091574,168.82783882783883
eeg_raw,1580074118508281,566.9230769230769,780.0732600732601,0.0,375.12820512820514
eeg_raw,1580074118508583,892.0879120879121,846.5567765567765,741.7948717948718,1410.6593406593406
eeg_raw,1580074118508892,1124.5787545787546,834.0659340659341,25.78754578754579,85.42124542124543
alpha_absolute,1580074118511411,0.0,0.0,0.0,0.0
beta_absolute,1580074118511889,0.0,0.0,0.0,0.0
theta_absolute,1580074118512203,0.0,0.0,0.0,0.0
alpha_relative,1580074118512506,NaN,NaN,NaN,NaN
beta_relative,1580074118512762,NaN,NaN,NaN,NaN
theta_relative,1580074118513030,NaN,NaN,NaN,NaN
eeg_raw,1580074118509228,954.945054945055,776.0439560439561,1496.080586080586,1315.5677655677657
eeg_raw,1580074118513966,635.0183150183151,721.2454212454213,530.6593406593407,259.4871794871795
eeg_raw,1580074118514338,551.6117216117216,738.5714285714286,0.0,256.2637362637363
eeg_raw,1580074118514661,839.3040293040293,816.7399267399268,578.6080586080586,1286.5567765567766
eeg_raw,1580074118515000,1107.6556776556777,830.8424908424909,1576.2637362637363,85.82417582417582
eeg_raw,1580074118515331,996.0439560439561,780.0732600732601,1588.7545787545787,1380.8424908424909
eeg_raw,1580074118515653,663.2234432234433,723.6630036630037,626.1538461538462,353.3699633699634
eeg_raw,1580074118516070,542.3443223443223,738.1684981684982,0.0,139.41391941391942
eeg_raw,1580074118516406,807.4725274725275,799.8168498168499,468.6080586080586,1137.4725274725274
eeg_raw,1580074118557481,1102.014652014652,822.3809523809524,1495.2747252747254,82.1978021978022
eeg_raw,1580074118558053,1025.0549450549452,780.4761904761905,1626.2271062271063,1445.7142857142858
eeg_raw,1580074118558548,691.025641025641,708.3516483516484,655.5677655677656,452.4908424908425
eeg_raw,1580074118558981,525.4212454212454,731.3186813186813,0.0,60.03663003663004
eeg_raw,1580074118559402,756.7032967032967,818.7545787545788,388.02197802197804,1021.8315018315019
eeg_raw,1580074118559879,1085.4945054945056,852.1978021978023,1400.5860805860807,68.9010989010989
eeg_raw,1580074118560279,1063.3333333333333,818.3516483516484,1637.5091575091576,1511.3919413919414
eeg_raw,1580074118560741,738.974358974359,764.7619047619048,673.6996336996338,560.4761904761905
eeg_raw,1580074118561188,535.0915750915751,792.1611721611722,0.0,10.073260073260073
eeg_raw,1580074118561662,720.0366300366301,853.4065934065934,277.61904761904765,916.6666666666667
eeg_raw,1580074118562063,1056.4835164835165,877.985347985348,1253.919413919414,40.29304029304029
eeg_raw,1580074118562498,1091.5384615384617,837.2893772893773,44.32234432234432,1581.0989010989013
eeg_raw,1580074118588045,789.7435897435897,776.8498168498169,901.7582417582418,689.0109890109891
eeg_raw,1580074118588614,548.3882783882784,770.0,15.311355311355312,0.0
eeg_raw,1580074118589069,681.7582417582418,812.7106227106227,182.12454212454213,775.2380952380953
eeg_raw,1580074118589506,1025.0549450549452,863.0769230769231,1174.5421245421246,1638.7179487179487
eeg_raw,1580074118589982,1112.4908424908426,825.2014652014652,57.61904761904762,1645.970695970696
alpha_absolute,1580074118592714,0.0,0.0,0.0,0.0
beta_absolute,1580074118593244,0.0,0.0,0.0,0.0
theta_absolute,1580074118593586,0.0,0.0,0.0,0.0
alpha_relative,1580074118593908,NaN,NaN,NaN,NaN
beta_relative,1580074118594259,NaN,NaN,NaN,NaN
theta_relative,1580074118594595,NaN,NaN,NaN,NaN
eeg_raw,1580074118590437,828.021978021978,759.1208791208792,867.1062271062272,832.0512820512821
eeg_raw,1580074118595705,552.014652014652,756.3003663003664,5.641025641025641,0.0
eeg_raw,1580074118596105,651.941391941392,800.2197802197802,137.8021978021978,608.021978021978
eeg_raw,1580074118596520,996.8498168498169,844.945054945055,990.0,1560.952380952381
eeg_raw,1580074118596926,1117.3260073260074,839.7069597069598,89.85347985347985,30.21978021978022
eeg_raw,1580074118597337,867.5091575091575,790.5494505494506,1249.89010989011,926.7399267399268
eeg_raw,1580074118597774,573.7728937728938,743.8095238095239,208.31501831501834,0.0
eeg_raw,1580074118621932,618.4981684981685,770.8058608058608,8.461538461538462,430.73260073260076
eeg_raw,1580074118622427,954.1391941391942,828.4249084249085,900.1465201465202,1440.0732600732601
eeg_raw,1580074118622763,1126.996336996337,810.6959706959707,59.633699633699635,64.46886446886447
eeg_raw,1580074118623124,904.5787545787546,770.4029304029305,1237.802197802198,994.8351648351648
eeg_raw,1580074118623458,585.4578754578755,751.4652014652015,286.8864468864469,14.102564102564102
eeg_raw,1580074118623804,581.8315018315019,786.5201465201466,0.0,297.3626373626374
eeg_raw,1580074118624120,908.6080586080586,848.5714285714286,732.5274725274726,1305.897435897436
eeg_raw,1580074118624467,1122.161172161172,844.945054945055,1646.3736263736264,87.43589743589745
eeg_raw,1580074118624779,943.2600732600733,819.1575091575091,1425.5677655677657,1093.1501831501832
eeg_raw,1580074118625132,615.2747252747253,780.8791208791209,440.0,91.46520146520147
eeg_raw,1580074118625470,554.4322344322344,797.3992673992674,0.0,203.4798534798535
eeg_raw,1580074118625803,858.6446886446887,856.6300366300367,525.018315018315,1189.047619047619
eeg_raw,1580074118682174,1122.967032967033,891.6849816849817,1488.8278388278388,101.13553113553114
eeg_raw,1580074118683062,996.8498168498169,862.2710622710623,1530.3296703296703,1254.3223443223444
eeg_raw,1580074118685801,649.92673992674,799.8168498168499,556.4468864468864,222.82051282051282
eeg_raw,1580074118687573,533.0769230769231,810.2930402930403,0.0,128.93772893772893
eeg_raw,1580074118689627,818.7545787545788,858.2417582417582,472.6373626373626,1114.5054945054944
eeg_raw,1580074118690349,1107.6556776556777,882.4175824175825,1459.8168498168498,97.50915750915752
eeg_raw,1580074118690771,1023.8461538461539,866.3003663003664,1619.3772893772893,1363.5164835164835
alpha_absolute,1580074118693479,0.0,0.0,0.0,0.0
beta_absolute,1580074118693969,0.0,0.0,0.0,0.0
theta_absolute,1580074118694275,0.0,0.0,0.0,0.0
alpha_relative,1580074118694543,NaN,NaN,NaN,NaN
beta_relative,1580074118694837,NaN,NaN,NaN,NaN
theta_relative,1580074118695105,NaN,NaN,NaN,NaN
eeg_raw,1580074118691196,701.0989010989011,822.7838827838829,685.7875457875458,346.9230769230769
eeg_raw,1580074118696039,557.2527472527472,823.992673992674,0.0,64.46886446886447
eeg_raw,1580074118696416,787.7289377289378,862.2710622710623,265.53113553113553,1025.8608058608058
eeg_raw,1580074118696769,1099.5970695970695,903.7728937728938,1241.025641025641,80.18315018315019
eeg_raw,1580074118697112,1064.945054945055,897.7289377289378,40.29304029304029,1462.6373626373627
eeg_raw,1580074118744250,734.945054945055,848.974358974359,801.4285714285714,483.91941391941396
eeg_raw,1580074118744850,541.5384615384615,839.7069597069598,0.0,0.0
eeg_raw,1580074118745218,738.1684981684982,890.4761904761905,289.3040293040293,920.2930402930403
eeg_raw,1580074118745641,1068.974358974359,942.0512820512821,1291.3919413919414,59.23076923076923
eeg_raw,1580074118746032,1089.1208791208792,909.8168498168499,90.25641025641026,1535.970695970696
eeg_raw,1580074118746387,766.7765567765568,850.1831501831502,910.6227106227107,603.1868131868132
eeg_raw,1580074118746723,531.4652014652015,826.007326007326,0.0,0.0
eeg_raw,1580074118747035,699.8901098901099,869.1208791208792,221.6117216117216,810.6959706959707
eeg_raw,1580074118747363,1043.992673992674,925.1282051282052,1189.047619047619,10.87912087912088
eeg_raw,1580074118747689,1109.6703296703297,900.1465201465202,109.5970695970696,1599.6336996336997
eeg_raw,1580074118748023,818.3516483516484,838.0952380952381,1075.4212454212454,738.5714285714286
eeg_raw,1580074118748377,556.0439560439561,794.1758241758242,84.61538461538461,0.0
eeg_raw,1580074118748737,667.2527472527473,844.1391941391942,67.28937728937728,669.6703296703297
eeg_raw,1580074118749075,1009.7435897435897,944.4688644688645,995.6410256410256,1599.2307692307693
eeg_raw,1580074118749380,1118.5347985347985,946.0805860805862,119.67032967032968,6.043956043956044
eeg_raw,1580074118749758,855.0183150183151,893.6996336996338,1219.2673992673992,877.5824175824176
eeg_raw,1580074118750113,562.0879120879121,862.6739926739926,204.6886446886447,0.0
eeg_raw,1580074118750440,626.1538461538462,895.3113553113553,0.0,495.6043956043956
eeg_raw,1580074118750795,967.8388278388279,958.1684981684982,881.2087912087912,1491.6483516483518
eeg_raw,1580074118751150,1125.3846153846155,959.7802197802198,111.20879120879121,54.395604395604394
eeg_raw,1580074118751503,895.7142857142858,909.4139194139194,1296.2271062271063,983.5531135531136
alpha_absolute,1580074118754160,0.0,0.0,0.0,0.0
beta_absolute,1580074118754596,0.0,0.0,0.0,0.0
theta_absolute,1580074118754883,0.0,0.0,0.0,0.0
alpha_relative,1580074118755164,NaN,NaN,NaN,NaN
beta_relative,1580074118755413,NaN,NaN,NaN,NaN
theta_relative,1580074118755680,NaN,NaN,NaN,NaN
eeg_raw,1580074118751848,590.6959706959707,856.6300366300367,260.6959706959707,3.6263736263736264
eeg_raw,1580074118756681,594.7252747252747,903.3699633699634,0.0,361.83150183150184
eeg_raw,1580074118757063,915.054945054945,994.0293040293041,794.981684981685,1376.4102564102564
eeg_raw,1580074118812370,1120.952380952381,1000.8791208791209,51.97802197802198,76.95970695970696
eeg_raw,1580074118812911,928.3516483516484,944.4688644688645,1373.1868131868132,1072.6007326007327
eeg_raw,1580074118813299,604.7985347985348,904.981684981685,349.34065934065933,71.72161172161172
eeg_raw,1580074118813663,566.5201465201466,944.0659340659341,0.0,245.3846153846154
eeg_raw,1580074118814007,873.5531135531136,1005.3113553113553,594.3223443223443,1249.4871794871794
eeg_raw,1580074118814362,1118.937728937729,1018.2051282051283,1620.9890109890111,95.8974358974359
eeg_raw,1580074118814710,971.4652014652015,965.0183150183151,1467.0695970695972,1195.0915750915751
eeg_raw,1580074118815057,637.4358974358975,896.5201465201466,433.95604395604397,176.08058608058607
eeg_raw,1580074118815424,545.1648351648352,929.1575091575091,0.0,148.6813186813187
eeg_raw,1580074118815827,835.2747252747253,1001.6849816849817,533.8827838827839,1128.2051282051282
eeg_raw,1580074118816210,1105.2380952380952,1007.7289377289378,1584.3223443223444,101.94139194139194
eeg_raw,1580074118816595,998.0586080586081,946.886446886447,1497.2893772893774,1305.897435897436
eeg_raw,1580074118891858,678.9377289377289,892.0879120879121,496.007326007326,278.02197802197804
eeg_raw,1580074118893729,537.5091575091575,903.3699633699634,0.0,90.25641025641026
eeg_raw,1580074118896297,786.5201465201466,954.945054945055,431.13553113553115,1049.2307692307693
eeg_raw,1580074118902532,1099.5970695970695,973.8827838827839,1476.739926739927,89.85347985347985
eeg_raw,1580074118903723,1032.3076923076924,915.8608058608058,1560.1465201465203,1390.915750915751
eeg_raw,1580074118905449,707.5457875457876,854.2124542124542,586.2637362637363,392.05128205128204
eeg_raw,1580074118909524,537.9120879120879,862.6739926739926,0.0,21.75824175824176
eeg_raw,1580074118910970,745.8241758241759,920.2930402930403,290.5128205128205,929.5604395604396
eeg_raw,1580074118912503,1070.5860805860807,965.4212454212454,1326.043956043956,64.46886446886447
eeg_raw,1580074118914183,1064.945054945055,921.5018315018315,1580.6959706959708,1493.2600732600733
eeg_raw,1580074118914730,745.0183150183151,866.7032967032967,623.3333333333334,523.0036630036631
alpha_absolute,1580074118918325,0.0,0.0,0.0,0.0
beta_absolute,1580074118918790,0.0,0.0,0.0,0.0
theta_absolute,1580074118919098,0.0,0.0,0.0,0.0
alpha_relative,1580074118919386,NaN,NaN,NaN,NaN
beta_relative,1580074118919679,NaN,NaN,NaN,NaN
theta_relative,1580074118920919,NaN,NaN,NaN,NaN
eeg_raw,1580074118915233,541.5384615384615,876.7765567765568,0.0,0.0
eeg_raw,1580074118942037,718.4249084249085,923.1135531135532,263.1135531135531,821.978021978022
eeg_raw,1580074118942579,1044.3956043956043,952.5274725274726,1217.2527472527472,28.205128205128204
eeg_raw,1580074118943009,1090.3296703296703,931.5750915750916,98.71794871794872,1566.5934065934066
eeg_raw,1580074118943387,792.1611721611722,898.1318681318681,986.3736263736264,649.92673992674
eeg_raw,1580074118943785,547.985347985348,878.7912087912089,16.520146520146522,0.0
eeg_raw,1580074118944150,678.5347985347986,926.7399267399268,119.26739926739927,704.3223443223443
eeg_raw,1580074118944499,1010.952380952381,981.5384615384615,1102.014652014652,1618.1684981684982
eeg_raw,1580074118944837,1108.8644688644688,951.7216117216118,47.94871794871795,1624.6153846153848
eeg_raw,1580074118945182,833.2600732600733,916.6666666666667,992.4175824175825,774.0293040293041
eeg_raw,1580074118945523,550.0,900.952380952381,112.01465201465201,0.0
eeg_raw,1580074118945842,641.8681318681319,938.021978021978,58.02197802197802,547.1794871794872
eeg_raw,1580074118946164,983.5531135531136,992.014652014652,910.6227106227107,1527.1062271062272
eeg_raw,1580074118946876,1120.952380952381,986.7765567765568,89.04761904761905,20.54945054945055
eeg_raw,1580074118947205,886.8498168498169,933.1868131868132,1189.047619047619,884.8351648351648
eeg_raw,1580074118947536,585.054945054945,891.2820512820513,157.94871794871796,0.0
eeg_raw,1580074118947879,607.2161172161173,909.4139194139194,11.684981684981686,398.9010989010989
eeg_raw,1580074118948204,938.8278388278388,946.4835164835165,728.4981684981685,1413.4798534798535
eeg_raw,1580074118948523,1118.5347985347985,951.3186813186813,1620.5860805860807,56.81318681318682
eeg_raw,1580074118948866,913.040293040293,913.4432234432235,1356.2637362637363,1007.7289377289378
eeg_raw,1580074118949216,600.3663003663004,872.3443223443223,329.1941391941392,39.08424908424909
eeg_raw,1580074118949535,579.4139194139194,900.952380952381,0.0,282.05128205128204
eeg_raw,1580074118949950,890.8791208791209,938.4249084249085,585.8608058608058,1300.6593406593406
eeg_raw,1580074118950330,1122.5641025641025,938.4249084249085,1537.1794871794873,85.42124542124543
eeg_raw,1580074118950723,959.7802197802198,890.0732600732601,1453.772893772894,1121.3553113553114
eeg_raw,1580074119008289,625.3479853479854,826.4102564102565,454.50549450549454,122.4908424908425
alpha_absolute,1580074119012247,0.16936923320650227,0.0,0.0,0.0
beta_absolute,1580074119012796,0.1177588488832205,0.0,0.0,0.0
theta_absolute,1580074119013160,0.3534833194379034,0.0,0.0,0.0
alpha_relative,1580074119013529,0.17305972777911346,NaN,NaN,NaN
beta_relative,1580074119013889,0.15366877595233575,NaN,NaN,NaN
theta_relative,1580074119014201,0.26442962095829065,NaN,NaN,NaN
eeg_raw,1580074119008925,556.4468864468864,842.5274725274726,0.0,179.3040293040293
eeg_raw,1580074119015174,849.3772893772895,910.6227106227107,553.2234432234433,1174.5421245421246
eeg_raw,1580074119015569,1113.2967032967033,938.8278388278388,1602.857142857143,94.28571428571429
eeg_raw,1580074119015923,996.4468864468864,885.6410256410256,1466.6666666666667,1229.3406593406594
eeg_raw,1580074119016313,653.956043956044,827.6190476190476,467.80219780219784,228.05860805860806
eeg_raw,1580074119016687,541.5384615384615,828.8278388278388,0.0,106.37362637362638
eeg_raw,1580074119017064,812.3076923076924,873.1501831501831,270.3663003663004,1060.915750915751
eeg_raw,1580074119017423,1095.5677655677655,926.3369963369963,1280.915750915751,93.47985347985349
eeg_raw,1580074119017838,1019.0109890109891,897.7289377289378,4.029304029304029,1336.5201465201465
eeg_raw,1580074119018201,694.6520146520147,835.2747252747253,689.0109890109891,336.4468864468865
eeg_raw,1580074119018600,537.1062271062272,828.8278388278388,0.0,39.89010989010989
eeg_raw,1580074119043126,768.7912087912088,878.7912087912089,355.3846153846154,948.0952380952381
eeg_raw,1580074119043606,1086.3003663003662,921.9047619047619,1353.0402930402931,73.33333333333333
eeg_raw,1580074119044003,1064.5421245421246,882.4175824175825,54.7985347985348,1455.3846153846155
eeg_raw,1580074119044384,741.7948717948718,817.948717948718,811.9047619047619,468.6080586080586
eeg_raw,1580074119044759,541.941391941392,814.7252747252747,0.0,0.0
eeg_raw,1580074119045078,729.3040293040293,873.5531135531136,260.6959706959707,829.2307692307693
eeg_raw,1580074119045448,1058.095238095238,924.3223443223443,1247.0695970695972,31.831501831501832
eeg_raw,1580074119045844,1087.5091575091576,898.1318681318681,92.27106227106228,1526.3003663003662
eeg_raw,1580074119046219,776.0439560439561,850.5860805860806,994.4322344322345,588.6813186813187
eeg_raw,1580074119046582,544.3589743589744,812.3076923076924,29.413919413919416,0.0
eeg_raw,1580074119046930,693.4432234432235,846.959706959707,172.85714285714286,668.0586080586081
eeg_raw,1580074119047281,1028.2783882783883,914.2490842490843,1135.4578754578754,1608.095238095238
eeg_raw,1580074119094543,1104.835164835165,894.908424908425,121.6849816849817,1595.2014652014652
eeg_raw,1580074119095159,822.7838827838829,825.2014652014652,1083.4798534798535,691.025641025641
eeg_raw,1580074119095639,554.8351648351648,792.967032967033,64.46886446886447,0.0
alpha_absolute,1580074119099018,0.19436745221923127,0.0,0.0,0.0
beta_absolute,1580074119099527,0.13264053779866725,0.0,0.0,0.0
theta_absolute,1580074119105427,0.3344183629044179,0.0,0.0,0.0
alpha_relative,1580074119105835,0.18278646814928254,NaN,NaN,NaN
beta_relative,1580074119106158,0.15856857631033297,NaN,NaN,NaN
theta_relative,1580074119107275,0.2523451441403095,NaN,NaN,NaN
eeg_raw,1580074119096024,661.6117216117216,838.901098901099,101.53846153846155,541.5384615384615
eeg_raw,1580074119110046,998.8644688644689,882.4175824175825,1035.934065934066,1519.4505494505495
eeg_raw,1580074119110480,1116.1172161172162,863.4798534798535,123.69963369963371,1649.1941391941393
eeg_raw,1580074119113650,866.7032967032967,793.3699633699634,1150.7692307692307,801.8315018315019
eeg_raw,1580074119114405,566.5201465201466,759.92673992674,120.87912087912088,0.0
eeg_raw,1580074119114778,616.886446886447,821.1721611721612,41.501831501831504,416.2271062271062
eeg_raw,1580074119115162,956.959706959707,873.1501831501831,917.0695970695971,1419.9267399267399
eeg_raw,1580074119115509,1122.5641025641025,871.1355311355312,111.61172161172162,46.739926739926744
eeg_raw,1580074119115863,905.7875457875458,822.3809523809524,1243.4432234432236,919.0842490842491
eeg_raw,1580074119144182,593.5164835164835,788.9377289377289,180.1098901098901,0.0
eeg_raw,1580074119144679,592.3076923076924,843.7362637362637,0.0,284.0659340659341
eeg_raw,1580074119145043,920.2930402930403,909.0109890109891,802.6373626373627,1281.7216117216117
eeg_raw,1580074119145424,1126.5934065934066,916.6666666666667,65.27472527472527,83.80952380952381
eeg_raw,1580074119145775,940.0366300366301,858.2417582417582,1343.772893772894,1044.7985347985348
eeg_raw,1580074119146180,615.6776556776557,815.1282051282052,328.3882783882784,64.87179487179488
eeg_raw,1580074119146582,564.1025641025641,855.4212454212454,0.0,179.3040293040293
eeg_raw,1580074119146936,866.7032967032967,916.2637362637363,646.3003663003664,1156.4102564102564
eeg_raw,1580074119147310,1115.7142857142858,927.1428571428572,19.340659340659343,101.94139194139194
eeg_raw,1580074119147697,971.4652014652015,864.2857142857143,1364.3223443223444,1146.739926739927
eeg_raw,1580074119148061,648.7179487179487,826.8131868131868,337.65567765567766,144.65201465201466
eeg_raw,1580074119148436,561.2820512820513,862.6739926739926,0.0,111.61172161172162
eeg_raw,1580074119170969,831.2454212454213,912.6373626373627,471.42857142857144,1046.4102564102564
eeg_raw,1580074119171517,1110.8791208791208,934.7985347985348,1480.3663003663005,99.92673992673993
eeg_raw,1580074119171958,1015.7875457875458,894.908424908425,1552.0879120879122,1274.065934065934
eeg_raw,1580074119172759,679.7435897435897,848.5714285714286,612.4542124542124,263.1135531135531
eeg_raw,1580074119173264,547.1794871794872,846.1538461538462,0.0,43.91941391941392
alpha_absolute,1580074119176366,0.2085017532388353,0.0,0.0,0.0
beta_absolute,1580074119176915,0.13821997994709914,0.0,0.0,0.0
theta_absolute,1580074119177275,0.3291486715581113,0.0,0.0,0.0
alpha_relative,1580074119177597,0.189135578921916,NaN,NaN,NaN
beta_relative,1580074119177946,0.16087607421006594,NaN,NaN,NaN
theta_relative,1580074119178287,0.24970092514847675,NaN,NaN,NaN
eeg_raw,1580074119173687,795.3846153846154,912.6373626373627,334.83516483516485,934.3956043956044
eeg_raw,1580074119179359,1102.014652014652,945.2747252747253,1378.8278388278388,85.01831501831502
eeg_raw,1580074119179850,1055.6776556776558,892.4908424908425,1574.6520146520147,1367.142857142857
eeg_raw,1580074119180262,719.6336996336996,856.2271062271062,661.6117216117216,361.02564102564105
eeg_raw,1580074119180652,541.1355311355311,858.6446886446887,0.0,0.0
eeg_raw,1580074119181007,755.0915750915751,909.8168498168499,314.2857142857143,812.7106227106227
eeg_raw,1580074119181388,1080.6593406593406,935.2014652014652,1301.4652014652015,36.666666666666664
eeg_raw,1580074119230913,1082.2710622710622,894.908424908425,90.25641025641026,1461.8315018315018
eeg_raw,1580074119231681,768.3882783882784,834.0659340659341,934.3956043956044,483.1135531135531
eeg_raw,1580074119232141,550.4029304029305,809.8901098901099,0.0,0.0
eeg_raw,1580074119232565,715.2014652014652,857.4358974358975,194.6153846153846,680.1465201465202
eeg_raw,1580074119232939,1045.2014652014652,894.5054945054945,1138.2783882783883,1622.1978021978023
eeg_raw,1580074119233300,1095.5677655677655,882.8205128205128,96.3003663003663,1551.6849816849817
eeg_raw,1580074119233666,809.4871794871796,841.7216117216118,1035.5311355311355,610.4395604395604
eeg_raw,1580074119234014,564.1025641025641,825.2014652014652,49.56043956043956,0.0
eeg_raw,1580074119234335,679.3406593406594,873.1501831501831,134.981684981685,567.7289377289377
eeg_raw,1580074119234672,1017.3992673992674,904.981684981685,988.7912087912089,1541.6117216117216
eeg_raw,1580074119235005,1124.1758241758241,913.4432234432235,62.05128205128205,1609.3040293040294
eeg_raw,1580074119235319,848.974358974359,880.8058608058608,1187.4358974358975,720.4395604395604
eeg_raw,1580074119280630,560.0732600732601,836.0805860805862,145.05494505494505,0.0
eeg_raw,1580074119281329,639.047619047619,878.3882783882784,49.96336996336996,423.4798534798535
eeg_raw,1580074119281768,983.1501831501831,940.8424908424909,923.1135531135532,1433.6263736263736
eeg_raw,1580074119282253,1124.1758241758241,941.6483516483516,97.10622710622711,18.937728937728938
eeg_raw,1580074119283865,882.014652014652,874.3589743589744,1286.1538461538462,832.8571428571429
eeg_raw,1580074119284416,583.040293040293,824.3956043956044,272.3809523809524,0.0
eeg_raw,1580074119284805,606.4102564102565,848.974358974359,0.0,307.03296703296706
alpha_absolute,1580074119287656,0.21017291169471986,0.0,0.0,0.0
beta_absolute,1580074119288157,0.13372238472876324,0.0,0.0,0.0
theta_absolute,1580074119288511,0.32580302953388,0.0,0.0,0.0
alpha_relative,1580074119288857,0.19292523185502553,NaN,NaN,NaN
beta_relative,1580074119289167,0.16178509336726574,NaN,NaN,NaN
theta_relative,1580074119289497,0.2517787938333806,NaN,NaN,NaN
eeg_raw,1580074119285172,926.3369963369963,894.5054945054945,583.8461538461538,1309.5238095238096
eeg_raw,1580074119290815,1118.1318681318683,925.5311355311355,1585.128205128205,66.48351648351648
eeg_raw,1580074119291219,921.9047619047619,883.2234432234433,1399.3772893772893,942.0512820512821
eeg_raw,1580074119291559,597.948717948718,820.7692307692308,367.4725274725275,3.2234432234432235
eeg_raw,1580074119291938,564.5054945054945,826.4102564102565,0.0,210.73260073260073
eeg_raw,1580074119314687,882.8205128205128,891.6849816849817,637.032967032967,1195.0915750915751
eeg_raw,1580074119315268,1116.5201465201465,928.3516483516484,14.505494505494505,93.07692307692308
eeg_raw,1580074119315698,960.5860805860806,881.2087912087912,1472.7106227106228,1078.6446886446886
eeg_raw,1580074119316081,636.6300366300367,831.2454212454213,496.007326007326,101.94139194139194
eeg_raw,1580074119316474,554.4322344322344,847.7655677655678,0.0,121.28205128205128
eeg_raw,1580074119316830,842.9304029304029,919.4871794871796,503.2600732600733,1068.5714285714287
eeg_raw,1580074119317174,1106.4468864468865,959.3772893772895,1534.7619047619048,105.97069597069597
eeg_raw,1580074119317552,991.6117216117217,919.0842490842491,1584.3223443223444,1190.2564102564104
eeg_raw,1580074119317939,652.7472527472528,865.8974358974359,643.4798534798535,183.73626373626374
eeg_raw,1580074119318358,537.5091575091575,847.3626373626374,0.0,77.76556776556777
eeg_raw,1580074119318747,803.040293040293,910.2197802197802,400.5128205128205,981.1355311355312
eeg_raw,1580074119319150,1096.7765567765568,972.6739926739928,1451.7582417582419,91.86813186813187
eeg_raw,1580074119366916,1031.904761904762,928.7545787545788,14.908424908424909,1306.7032967032967
eeg_raw,1580074119367596,701.9047619047619,852.1978021978023,740.5860805860806,300.5860805860806
eeg_raw,1580074119368095,539.5238095238095,840.9157509157509,0.0,6.446886446886447
eeg_raw,1580074119368487,753.8827838827839,904.1758241758242,388.42490842490844,855.4212454212454
eeg_raw,1580074119368915,1073.003663003663,931.1721611721612,1407.4358974358975,63.26007326007326
eeg_raw,1580074119369309,1062.5274725274726,898.5347985347986,23.369963369963372,1415.897435897436
eeg_raw,1580074119369694,740.989010989011,834.8717948717949,804.2490842490843,420.65934065934067
eeg_raw,1580074119370149,545.5677655677656,818.7545787545788,0.0,0.0
eeg_raw,1580074119370578,726.4835164835165,896.1172161172161,288.9010989010989,718.4249084249085
alpha_absolute,1580074119373396,0.2104922484804406,0.0,0.0,0.0
beta_absolute,1580074119373952,0.12046391744044219,0.0,0.0,0.0
theta_absolute,1580074119374290,0.3171408857801701,0.0,0.0,0.0
alpha_relative,1580074119374617,0.19844443325963718,NaN,NaN,NaN
beta_relative,1580074119374916,0.1612911690033319,NaN,NaN,NaN
theta_relative,1580074119375201,0.2536807762473266,NaN,NaN,NaN
eeg_raw,1580074119370986,1054.065934065934,933.992673992674,1271.6483516483518,1644.3589743589744
eeg_raw,1580074119376241,1096.3736263736264,880.0,112.82051282051282,1504.945054945055
eeg_raw,1580074119376649,792.1611721611722,791.7582417582418,993.2234432234433,538.3150183150183
eeg_raw,1580074119449525,549.1941391941392,758.7179487179487,0.0,0.0
eeg_raw,1580074119451913,688.2051282051282,825.6043956043957,180.91575091575092,593.5164835164835
eeg_raw,1580074119454128,1025.8608058608058,887.2527472527473,1152.3809523809525,1566.996336996337
eeg_raw,1580074119456072,1106.849816849817,869.92673992674,132.96703296703296,1577.4725274725274
eeg_raw,1580074119457204,838.4981684981685,792.967032967033,1052.4542124542124,651.941391941392
eeg_raw,1580074119458001,564.5054945054945,757.9120879120879,25.384615384615387,0.0
eeg_raw,1580074119459051,645.0915750915751,807.0695970695971,114.43223443223444,469.4139194139194
eeg_raw,1580074119460635,984.7619047619048,842.9304029304029,1048.8278388278388,1468.6813186813188
eeg_raw,1580074119462949,1119.3406593406594,824.3956043956044,147.47252747252747,1640.7326007326008
eeg_raw,1580074119463774,876.3736263736264,745.0183150183151,1092.7472527472528,759.5238095238095
eeg_raw,1580074119464731,574.1758241758242,721.2454212454213,49.15750915750916,0.0
eeg_raw,1580074119465536,610.8424908424909,788.5347985347986,32.234432234432234,338.86446886446885
eeg_raw,1580074119487730,948.0952380952381,854.6153846153846,913.4432234432235,1330.0732600732601
eeg_raw,1580074119488357,1122.161172161172,858.6446886446887,106.77655677655677,48.35164835164835
eeg_raw,1580074119488794,909.0109890109891,789.3406593406594,1284.945054945055,875.5677655677656
eeg_raw,1580074119489200,600.7692307692308,757.1062271062272,273.992673992674,0.0
eeg_raw,1580074119489576,600.3663003663004,789.3406593406594,0.0,235.31135531135533
eeg_raw,1580074119490001,919.8901098901099,841.7216117216118,735.7509157509157,1217.2527472527472
eeg_raw,1580074119490388,1133.0402930402931,849.7802197802198,53.58974358974359,83.40659340659342
eeg_raw,1580074119490854,965.4212454212454,793.3699633699634,1293.003663003663,997.6556776556777
eeg_raw,1580074119491222,633.0036630036631,776.8498168498169,286.4835164835165,41.904761904761905
eeg_raw,1580074119491652,562.893772893773,818.7545787545788,0.0,151.0989010989011
eeg_raw,1580074119492036,857.8388278388279,880.4029304029305,707.5457875457876,1103.6263736263736
alpha_absolute,1580074119494891,0.2104922484804406,0.0,0.0,0.0
beta_absolute,1580074119495437,0.1060588770947445,0.0,0.0,0.0
theta_absolute,1580074119495737,0.31230144962001477,0.0,0.0,0.0
alpha_relative,1580074119496018,0.20251033016173417,NaN,NaN,NaN
beta_relative,1580074119496303,0.15922593592229936,NaN,NaN,NaN
theta_relative,1580074119496587,0.25600967769559596,NaN,NaN,NaN
eeg_raw,1580074119492406,1110.8791208791208,889.2673992673992,8.058608058608058,104.35897435897436
eeg_raw,1580074119497920,976.7032967032967,853.8095238095239,1525.4945054945056,1123.772893772894
eeg_raw,1580074119498283,649.92673992674,823.1868131868132,576.1904761904763,130.14652014652015
eeg_raw,1580074119498618,537.5091575091575,834.0659340659341,0.0,81.7948717948718
eeg_raw,1580074119498947,801.025641025641,893.6996336996338,558.0586080586081,988.3882783882784
eeg_raw,1580074119499386,1096.7765567765568,903.3699633699634,1590.3663003663005,98.71794871794872
eeg_raw,1580074119499849,1018.2051282051283,853.4065934065934,1571.025641025641,1257.948717948718
eeg_raw,1580074119500233,685.7875457875458,805.054945054945,622.9304029304029,248.2051282051282
eeg_raw,1580074119500667,540.7326007326008,814.3223443223443,0.0,26.996336996336996
eeg_raw,1580074119501121,777.6556776556777,877.985347985348,454.1025641025641,890.4761904761905
eeg_raw,1580074119501511,1089.1208791208792,901.7582417582418,1465.4578754578754,80.98901098901099
eeg_raw,1580074119501929,1053.2600732600733,885.2380952380953,34.24908424908425,1349.010989010989
eeg_raw,1580074119502344,732.5274725274726,859.047619047619,839.7069597069598,341.6849816849817
eeg_raw,1580074119550031,543.5531135531136,847.3626373626374,0.0,0.0
eeg_raw,1580074119550666,727.6923076923077,899.7435897435897,315.0915750915751,752.2710622710623
eeg_raw,1580074119551034,1053.2600732600733,939.6336996336996,1302.2710622710624,14.908424908424909
eeg_raw,1580074119551403,1069.7802197802198,922.7106227106227,95.8974358974359,1458.2051282051282
eeg_raw,1580074119551732,763.956043956044,852.1978021978023,963.8095238095239,467.80219780219784
eeg_raw,1580074119552049,549.5970695970697,830.8424908424909,0.0,0.0
eeg_raw,1580074119552411,700.2930402930403,885.2380952380953,186.55677655677655,648.7179487179487
eeg_raw,1580074119552778,1021.4285714285714,924.3223443223443,1089.1208791208792,1601.2454212454213
eeg_raw,1580074119553127,1093.5531135531137,935.6043956043957,83.40659340659342,1526.3003663003662
eeg_raw,1580074119553445,811.9047619047619,881.6117216117217,1009.7435897435897,582.2344322344322
eeg_raw,1580074119553823,540.3296703296703,866.7032967032967,53.99267399267399,0.0
eeg_raw,1580074119554214,670.4761904761905,906.5934065934066,53.18681318681319,501.24542124542126
eeg_raw,1580074119613954,1004.1025641025641,960.5860805860806,921.0989010989011,1496.4835164835165
alpha_absolute,1580074119620704,0.2104922484804406,0.0,0.0,0.0
beta_absolute,1580074119621939,0.10078137700200225,0.0,0.0,0.0
theta_absolute,1580074119622850,0.3230926181713939,0.0,0.0,0.0
alpha_relative,1580074119623904,0.20278434312036164,NaN,NaN,NaN
beta_relative,1580074119624690,0.1575155916520966,NaN,NaN,NaN
theta_relative,1580074119625627,0.2628057057899295,NaN,NaN,NaN
eeg_raw,1580074119615023,1104.835164835165,977.9120879120879,114.43223443223444,1606.080586080586
eeg_raw,1580074119633025,855.0183150183151,922.3076923076924,1223.6996336996338,716.007326007326
eeg_raw,1580074119634203,568.1318681318681,897.3260073260074,206.7032967032967,0.0
eeg_raw,1580074119635411,626.959706959707,925.934065934066,0.0,396.8864468864469
eeg_raw,1580074119636650,958.5714285714286,978.7179487179487,828.8278388278388,1397.7655677655678
eeg_raw,1580074119637933,1115.3113553113553,998.0586080586081,91.86813186813187,2.0146520146520146
eeg_raw,1580074119638892,890.4761904761905,939.2307692307693,1281.3186813186815,815.1282051282052
eeg_raw,1580074119639674,585.4578754578755,902.967032967033,278.02197802197804,0.0
eeg_raw,1580074119640828,596.3369963369963,917.4725274725275,0.0,280.0366300366301
eeg_raw,1580074119641225,929.1575091575091,987.1794871794872,660.0,1270.4395604395604
eeg_raw,1580074119642326,1135.0549450549452,1014.1758241758242,61.64835164835165,64.87179487179488
eeg_raw,1580074119697604,935.6043956043957,944.8717948717949,1355.0549450549452,964.2124542124542
eeg_raw,1580074119698180,606.007326007326,888.0586080586081,353.3699633699634,29.01098901098901
eeg_raw,1580074119698593,571.3553113553114,908.2051282051282,0.0,183.33333333333334
eeg_raw,1580074119698984,890.4761904761905,996.8498168498169,603.1868131868132,1156.4102564102564
eeg_raw,1580074119699362,1129.010989010989,1006.5201465201466,1642.3443223443223,97.10622710622711
eeg_raw,1580074119699757,960.1831501831502,942.0512820512821,1346.1904761904761,1067.3626373626373
eeg_raw,1580074119700171,639.4505494505495,887.6556776556777,330.4029304029304,96.7032967032967
eeg_raw,1580074119700530,562.4908424908425,906.1904761904763,0.0,95.0915750915751
eeg_raw,1580074119700874,835.6776556776557,996.4468864468864,462.16117216117215,1009.3406593406594
eeg_raw,1580074119701232,1108.0586080586081,1013.7728937728938,1523.076923076923,105.16483516483517
eeg_raw,1580074119701551,1000.0732600732601,941.6483516483516,1513.003663003663,1209.5970695970695
eeg_raw,1580074119701882,666.8498168498169,866.3003663003664,506.0805860805861,201.06227106227107
eeg_raw,1580074119702326,544.7619047619048,859.8534798534798,0.0,30.21978021978022
eeg_raw,1580074119702678,800.2197802197802,913.4432234432235,321.53846153846155,891.2820512820513
eeg_raw,1580074119703009,1110.8791208791208,924.3223443223443,1351.025641025641,83.80952380952381
alpha_absolute,1580074119706007,0.2104922484804406,0.0,0.0,0.0
beta_absolute,1580074119706513,0.11043762632424112,0.0,0.0,0.0
theta_absolute,1580074119706896,0.34710147012205184,0.0,0.0,0.0
alpha_relative,1580074119707195,0.19907999909660432,NaN,NaN,NaN
beta_relative,1580074119707493,0.15811497653814258,NaN,NaN,NaN
theta_relative,1580074119707830,0.27266968205911407,NaN,NaN,NaN
eeg_raw,1580074119703372,1045.2014652014652,872.7472527472528,1569.8168498168498,1298.2417582417584
eeg_raw,1580074119708811,704.3223443223443,785.3113553113553,569.3406593406594,291.31868131868134
eeg_raw,1580074119709197,534.2857142857143,780.0732600732601,0.0,0.0
eeg_raw,1580074119709515,744.6153846153846,878.7912087912089,205.4945054945055,751.0622710622711
eeg_raw,1580074119709893,1066.1538461538462,925.1282051282052,1154.7985347985348,22.564102564102566
eeg_raw,1580074119710272,1060.5128205128206,900.952380952381,9.670329670329672,1396.1538461538462
eeg_raw,1580074119710673,747.8388278388279,827.6190476190476,682.967032967033,393.2600732600733
eeg_raw,1580074119711078,537.5091575091575,825.6043956043957,0.0,0.0
eeg_raw,1580074119711435,707.5457875457876,914.2490842490843,152.71062271062272,598.3516483516484
eeg_raw,1580074119734062,1043.992673992674,960.5860805860806,1063.3333333333333,1577.8754578754579
eeg_raw,1580074119734489,1099.1941391941393,933.5897435897436,54.395604395604394,1477.5457875457876
eeg_raw,1580074119734956,806.2637362637363,869.92673992674,764.3589743589744,490.7692307692308
eeg_raw,1580074119735395,550.4029304029305,864.6886446886447,0.0,0.0
eeg_raw,1580074119735784,686.5934065934066,915.8608058608058,82.1978021978022,448.05860805860806
eeg_raw,1580074119736163,1023.4432234432235,967.032967032967,891.2820512820513,1469.89010989011
eeg_raw,1580074119736542,1113.2967032967033,957.3626373626374,6.446886446886447,1544.029304029304
eeg_raw,1580074119736963,843.3333333333334,882.014652014652,785.3113553113553,568.5347985347986
eeg_raw,1580074119737335,559.2673992673992,873.1501831501831,0.0,0.0
eeg_raw,1580074119737642,640.2564102564103,929.1575091575091,61.64835164835165,332.8205128205128
eeg_raw,1580074119737984,982.7472527472528,981.1355311355312,886.0439560439561,1330.8791208791208
eeg_raw,1580074119738314,1124.5787545787546,954.945054945055,77.36263736263737,1612.1245421245421
eeg_raw,1580074119786814,875.9706959706959,883.2234432234433,1122.161172161172,672.893772893773
eeg_raw,1580074119787414,570.952380952381,869.5238095238095,169.23076923076923,0.0
eeg_raw,1580074119787958,605.2014652014652,904.5787545787546,1.6117216117216118,235.71428571428572
eeg_raw,1580074119788454,943.2600732600733,961.3919413919414,821.1721611721612,1203.1501831501832
eeg_raw,1580074119788991,1120.5494505494505,970.2564102564103,72.93040293040293,22.16117216117216
alpha_absolute,1580074119792814,0.21592238468948297,0.0,0.0,0.0
beta_absolute,1580074119793360,0.1338012187411804,0.0,0.0,0.0
theta_absolute,1580074119793686,0.37214328467871377,0.0,0.0,0.0
alpha_relative,1580074119794033,0.19596929798496626,NaN,NaN,NaN
beta_relative,1580074119794360,0.16220598363815264,NaN,NaN,NaN
theta_relative,1580074119794653,0.2808076511754335,NaN,NaN,NaN
eeg_raw,1580074119789492,902.1611721611722,911.4285714285714,1279.7069597069597,788.9377289377289
eeg_raw,1580074119795910,587.0695970695971,861.4652014652015,282.45421245421244,0.0
eeg_raw,1580074119796467,562.4908424908425,883.2234432234433,0.0,176.8864468864469
eeg_raw,1580074119796911,863.8827838827839,951.7216117216118,750.6593406593407,1118.1318681318683
eeg_raw,1580074119797438,1086.3003663003662,959.3772893772895,22.967032967032967,80.58608058608058
eeg_raw,1580074119797890,914.2490842490843,918.2783882783883,1399.7802197802198,962.1978021978023
eeg_raw,1580074119798281,592.3076923076924,886.0439560439561,431.53846153846155,39.48717948717949
eeg_raw,1580074119890994,532.2710622710623,894.1025641025641,0.0,110.8058608058608
eeg_raw,1580074119891487,813.919413919414,937.2161172161173,651.5384615384615,1012.967032967033
eeg_raw,1580074119891811,1075.8241758241759,947.6923076923077,1613.3333333333335,98.31501831501832
eeg_raw,1580074119892126,958.5714285714286,920.6959706959707,1567.802197802198,1114.9084249084249
eeg_raw,1580074119892439,629.3772893772893,863.8827838827839,633.8095238095239,134.17582417582418
eeg_raw,1580074119892766,516.959706959707,875.1648351648352,0.0,49.96336996336996
eeg_raw,1580074119893052,761.941391941392,942.0512820512821,517.7655677655678,915.054945054945
eeg_raw,1580074119893348,1050.03663003663,963.4065934065934,1487.6190476190477,95.8974358974359
eeg_raw,1580074119893650,980.7326007326008,947.6923076923077,3.2234432234432235,1250.6959706959708
eeg_raw,1580074119893950,646.3003663003664,887.2527472527473,783.2967032967033,240.95238095238096
eeg_raw,1580074119894258,485.9340659340659,875.5677655677656,0.0,0.0
eeg_raw,1580074119894530,718.021978021978,926.3369963369963,357.80219780219784,824.7985347985348
eeg_raw,1580074119916103,1029.0842490842492,971.0622710622711,1349.010989010989,68.0952380952381
eeg_raw,1580074119916595,996.0439560439561,952.5274725274726,49.15750915750916,1370.7692307692307
eeg_raw,1580074119916943,674.5054945054945,895.7142857142858,890.4761904761905,378.35164835164835
eeg_raw,1580074119917246,471.83150183150184,901.3553113553114,0.0,0.0
eeg_raw,1580074119917522,658.3882783882784,954.1391941391942,207.50915750915752,695.054945054945
eeg_raw,1580074119917861,986.7765567765568,1013.7728937728938,1170.915750915751,0.40293040293040294
eeg_raw,1580074119918189,1005.7142857142858,1018.2051282051283,93.07692307692308,1483.992673992674
alpha_absolute,1580074119921146,0.21592238468948297,0.0,0.0,0.0
beta_absolute,1580074119921693,0.1338012187411804,0.0,0.0,0.0
theta_absolute,1580074119922034,0.37214328467871377,0.0,0.0,0.0
alpha_relative,1580074119922323,0.19596929798496626,NaN,NaN,NaN
beta_relative,1580074119922603,0.16220598363815264,NaN,NaN,NaN
theta_relative,1580074119922881,0.2808076511754335,NaN,NaN,NaN
eeg_raw,1580074119918543,699.0842490842491,956.5567765567766,1024.6520146520147,505.6776556776557
eeg_raw,1580074119923873,483.5164835164835,942.0512820512821,58.42490842490842,0.0
eeg_raw,1580074119924258,637.4358974358975,971.0622710622711,126.11721611721612,579.8168498168499
eeg_raw,1580074119924651,956.5567765567766,999.6703296703297,1094.3589743589744,1573.4432234432236
eeg_raw,1580074119925041,1032.7106227106228,969.047619047619,126.92307692307692,1556.1172161172162
eeg_raw,1580074119949964,764.7619047619048,895.3113553113553,1139.0842490842492,615.6776556776557
eeg_raw,1580074119950503,497.61904761904765,864.6886446886447,124.1025641025641,0.0
eeg_raw,1580074119950865,599.1575091575091,891.6849816849817,37.06959706959707,482.7106227106227
eeg_raw,1580074119951229,945.2747252747253,956.959706959707,983.1501831501831,1483.992673992674
eeg_raw,1580074119951569,1070.5860805860807,946.886446886447,133.77289377289378,1627.032967032967
eeg_raw,1580074119951932,827.2161172161173,870.7326007326008,1165.2747252747254,732.9304029304029
eeg_raw,1580074119952284,544.3589743589744,834.4688644688645,155.12820512820514,0.0
eeg_raw,1580074119952621,589.8901098901099,861.8681318681319,0.0,364.65201465201466
eeg_raw,1580074119952956,922.7106227106227,940.0366300366301,873.5531135531136,1364.3223443223444
eeg_raw,1580074119953322,1102.4175824175825,942.0512820512821,105.97069597069597,36.666666666666664
eeg_raw,1580074119953666,879.5970695970697,875.9706959706959,1352.6373626373627,863.8827838827839
eeg_raw,1580074119954001,562.4908424908425,820.3663003663004,351.35531135531136,0.0
eeg_raw,1580074119974741,573.7728937728938,847.7655677655678,0.0,262.3076923076923
eeg_raw,1580074119975129,892.893772893773,952.9304029304029,830.8424908424909,1244.2490842490843
eeg_raw,1580074119975473,1104.4322344322345,971.8681318681319,78.57142857142857,73.33333333333333
eeg_raw,1580074119975804,930.3663003663004,907.8021978021978,1481.978021978022,999.2673992673992
eeg_raw,1580074119976149,606.007326007326,836.4835164835165,516.959706959707,47.142857142857146
eeg_raw,1580074119976481,561.2820512820513,850.989010989011,0.0,180.51282051282053
eeg_raw,1580074119976797,871.1355311355312,926.3369963369963,645.0915750915751,1149.96336996337
eeg_raw,1580074119977127,1113.2967032967033,955.3479853479854,1622.6007326007327,97.91208791208791
eeg_raw,1580074119977451,967.032967032967,909.4139194139194,1538.7912087912089,1122.967032967033
alpha_absolute,1580074119980329,0.21592238468948297,0.0,0.0,0.0
beta_absolute,1580074119980803,0.1338012187411804,0.0,0.0,0.0
theta_absolute,1580074119981097,0.37214328467871377,0.0,0.0,0.0
alpha_relative,1580074119981404,0.19596929798496626,NaN,NaN,NaN
beta_relative,1580074119981683,0.16220598363815264,NaN,NaN,NaN
theta_relative,1580074119981942,0.2808076511754335,NaN,NaN,NaN
eeg_raw,1580074119977770,638.2417582417582,855.4212454212454,577.3992673992674,135.3846153846154
eeg_raw,1580074119982913,539.92673992674,878.3882783882784,0.0,101.94139194139194
eeg_raw,1580074119983292,824.3956043956044,943.2600732600733,544.7619047619048,1031.5018315018315
eeg_raw,1580074120037307,1104.835164835165,965.8241758241759,1571.025641025641,100.73260073260073
eeg_raw,1580074120037872,1005.3113553113553,919.8901098901099,1615.3479853479853,1249.4871794871794
eeg_raw,1580074120038228,678.1318681318681,837.6923076923077,655.1648351648352,247.8021978021978
eeg_raw,1580074120038592,543.1501831501831,842.5274725274726,0.0,33.040293040293044
eeg_raw,1580074120038928,790.952380952381,900.1465201465202,425.0915750915751,911.4285714285714
eeg_raw,1580074120039262,1099.5970695970695,913.4432234432235,1434.835164835165,82.1978021978022
eeg_raw,1580074120039595,1055.2747252747254,880.4029304029305,14.908424908424909,1361.904761904762
eeg_raw,1580074120041843,727.6923076923077,788.9377289377289,709.5604395604396,360.2197802197802
eeg_raw,1580074120042267,541.1355311355311,786.9230769230769,0.0,0.0
eeg_raw,1580074120042617,748.6446886446887,853.8095238095239,359.010989010989,790.952380952381
eeg_raw,1580074120042950,1077.032967032967,888.8644688644689,1372.3809523809525,34.65201465201465
eeg_raw,1580074120043292,1079.4505494505495,851.3919413919414,31.42857142857143,1445.7142857142858
eeg_raw,1580074120084908,769.1941391941392,794.1758241758242,809.8901098901099,458.93772893772893
eeg_raw,1580074120085452,550.0,806.2637362637363,0.0,0.0
eeg_raw,1580074120085779,715.6043956043957,877.1794871794872,259.8901098901099,683.7728937728938
eeg_raw,1580074120086120,1051.2454212454213,933.992673992674,1244.2490842490843,1623.4065934065934
eeg_raw,1580074120086468,1110.0732600732601,912.2344322344322,103.55311355311356,1538.3882783882784
eeg_raw,1580074120086824,812.3076923076924,851.7948717948718,965.0183150183151,583.8461538461538
eeg_raw,1580074120087175,545.1648351648352,853.0036630036631,0.0,0.0
eeg_raw,1580074120087522,668.8644688644689,925.5311355311355,149.8901098901099,526.2271062271062
eeg_raw,1580074120087914,1011.7582417582418,976.7032967032967,1118.937728937729,1514.6153846153848
eeg_raw,1580074120088297,1119.3406593406594,932.3809523809524,54.395604395604394,1589.1575091575091
eeg_raw,1580074120088654,850.989010989011,852.6007326007326,995.2380952380953,668.8644688644689
alpha_absolute,1580074120091852,0.21592238468948297,0.0,0.0,0.0
beta_absolute,1580074120092339,0.1338012187411804,0.0,0.0,0.0
theta_absolute,1580074120094779,0.37214328467871377,0.0,0.0,0.0
alpha_relative,1580074120095147,0.19596929798496626,NaN,NaN,NaN
beta_relative,1580074120095448,0.16220598363815264,NaN,NaN,NaN
theta_relative,1580074120095734,0.2808076511754335,NaN,NaN,NaN
eeg_raw,1580074120089016,552.014652014652,831.2454212454213,101.13553113553114,0.0
eeg_raw,1580074120180410,623.7362637362637,857.032967032967,49.56043956043956,394.46886446886447
eeg_raw,1580074120180991,977.5091575091575,891.6849816849817,942.4542124542124,1398.9743589743591
eeg_raw,1580074120181350,1128.2051282051282,875.5677655677656,107.17948717948718,1645.1648351648353
eeg_raw,1580074120181697,881.6117216117217,821.978021978022,1251.5018315018315,762.7472527472528
eeg_raw,1580074120182051,577.8021978021978,776.0439560439561,241.75824175824175,0.0
eeg_raw,1580074120182438,611.6483516483516,801.4285714285714,0.0,293.3333333333333
eeg_raw,1580074120182793,929.96336996337,868.3150183150184,867.5091575091575,1282.5274725274726
eeg_raw,1580074120183181,1119.7435897435898,875.9706959706959,79.37728937728939,53.18681318681319
eeg_raw,1580074120183573,926.7399267399268,838.901098901099,1414.6886446886447,894.5054945054945
eeg_raw,1580074120183956,605.2014652014652,797.8021978021978,422.6739926739927,0.0
eeg_raw,1580074120184335,576.996336996337,828.4249084249085,0.0,188.97435897435898
eeg_raw,1580074120184705,893.2967032967033,876.3736263736264,675.7142857142858,1152.3809523809525
eeg_raw,1580074120205511,1129.8168498168498,887.6556776556777,1611.3186813186815,84.61538461538461
eeg_raw,1580074120206091,971.8681318681319,844.1391941391942,1441.6849816849817,996.8498168498169
eeg_raw,1580074120206546,643.0769230769231,773.6263736263736,418.64468864468864,63.26007326007326
eeg_raw,1580074120206908,561.6849816849817,799.4139194139194,0.0,97.50915750915752
eeg_raw,1580074120207292,848.974358974359,858.2417582417582,541.1355311355311,998.8644688644689
eeg_raw,1580074120207668,1122.161172161172,868.7179487179487,1526.3003663003662,93.47985347985349
eeg_raw,1580074120208051,1000.8791208791209,812.7106227106227,1544.4322344322345,1085.0915750915751
